Model,MDO3104
Firmware Version,1.30

Waveform Type,RF_FD
Point Format,Y
Horizontal Units,Hz
Horizontal Scale,2.8e+07
,
Sample Interval,373333
Record Length,751
Gating,0.133155792277% to 100.0%
Probe Attenuation,1
Vertical Units,dBm
Vertical Offset,0
Vertical Scale,10
Vertical Position,0
Center Frequency,1.4e+08
Span,2.8e+08
Reference Level,-15
Label,
FREQUENCY,FD NORM
0.000000000e+00,-60.3323
3.733333333e+05,-69.4073
7.466666667e+05,-74.2458
1.120000000e+06,-75.2365
1.493333333e+06,-70.7593
1.866666667e+06,-68.0396
2.240000000e+06,-80.5473
2.613333333e+06,-67.2032
2.986666667e+06,-63.8892
3.360000000e+06,-62.8486
3.733333333e+06,-64.892
4.106666667e+06,-65.5526
4.480000000e+06,-64.554
4.853333333e+06,-71.7785
5.226666667e+06,-65.2177
5.600000000e+06,-67.8755
5.973333333e+06,-69.6648
6.346666667e+06,-68.1833
6.720000000e+06,-69.955
7.093333333e+06,-68.4165
7.466666667e+06,-69.4685
7.840000000e+06,-77.865
8.213333333e+06,-70.6143
8.586666667e+06,-70.6024
8.960000000e+06,-70.2193
9.333333333e+06,-69.9258
9.706666667e+06,-71.9611
1.008000000e+07,-73.1325
1.045333333e+07,-70.8701
1.082666667e+07,-75.2194
1.120000000e+07,-68.691
1.157333333e+07,-66.491
1.194666667e+07,-63.8348
1.232000000e+07,-67.1116
1.269333333e+07,-70.0611
1.306666667e+07,-68.7282
1.344000000e+07,-68.1885
1.381333333e+07,-72.9005
1.418666667e+07,-70.0424
1.456000000e+07,-69.2249
1.493333333e+07,-70.5646
1.530666667e+07,-72.4059
1.568000000e+07,-70.8899
1.605333333e+07,-70.8511
1.642666667e+07,-70.0384
1.680000000e+07,-67.5105
1.717333333e+07,-67.596
1.754666667e+07,-72.0206
1.792000000e+07,-73.2592
1.829333333e+07,-79.9819
1.866666667e+07,-69.5046
1.904000000e+07,-69.4274
1.941333333e+07,-72.6353
1.978666667e+07,-68.4691
2.016000000e+07,-68.2341
2.053333333e+07,-72.437
2.090666667e+07,-72.6104
2.128000000e+07,-68.8923
2.165333333e+07,-69.0643
2.202666667e+07,-68.1704
2.240000000e+07,-69.0986
2.277333333e+07,-67.4399
2.314666667e+07,-71.0581
2.352000000e+07,-70.4913
2.389333333e+07,-69.6392
2.426666667e+07,-65.4586
2.464000000e+07,-60.4929
2.501333333e+07,-53.1346
2.538666667e+07,-60.2904
2.576000000e+07,-69.6431
2.613333333e+07,-63.7623
2.650666667e+07,-70.9592
2.688000000e+07,-62.2076
2.725333333e+07,-63.7179
2.762666667e+07,-73.549
2.800000000e+07,-68.9937
2.837333333e+07,-72.4672
2.874666667e+07,-73.6255
2.912000000e+07,-74.1814
2.949333333e+07,-70.3337
2.986666667e+07,-70.8392
3.024000000e+07,-76.1573
3.061333333e+07,-72.8304
3.098666667e+07,-76.9435
3.136000000e+07,-71.1618
3.173333333e+07,-75.0709
3.210666667e+07,-77.6595
3.248000000e+07,-79.809
3.285333333e+07,-79.4668
3.322666667e+07,-78.6886
3.360000000e+07,-76.0909
3.397333333e+07,-77.0928
3.434666667e+07,-76.2889
3.472000000e+07,-73.5894
3.509333333e+07,-74.677
3.546666667e+07,-76.2314
3.584000000e+07,-59.6897
3.621333333e+07,-61.2895
3.658666667e+07,-69.4485
3.696000000e+07,-69.0841
3.733333333e+07,-75.0206
3.770666667e+07,-76.0938
3.808000000e+07,-76.5999
3.845333333e+07,-73.6873
3.882666667e+07,-76.7354
3.920000000e+07,-75.3589
3.957333333e+07,-75.1597
3.994666667e+07,-79.5557
4.032000000e+07,-75.5891
4.069333333e+07,-75.8999
4.106666667e+07,-75.228
4.144000000e+07,-73.3267
4.181333333e+07,-75.7708
4.218666667e+07,-74.6571
4.256000000e+07,-76.6478
4.293333333e+07,-75.6798
4.330666667e+07,-86.6961
4.368000000e+07,-73.1852
4.405333333e+07,-74.0145
4.442666667e+07,-76.1788
4.480000000e+07,-77.8646
4.517333333e+07,-74.736
4.554666667e+07,-80.0035
4.592000000e+07,-76.5823
4.629333333e+07,-81.4586
4.666666667e+07,-74.819
4.704000000e+07,-73.0117
4.741333333e+07,-74.7645
4.778666667e+07,-63.8858
4.816000000e+07,-65.7339
4.853333333e+07,-77.9574
4.890666667e+07,-77.6606
4.928000000e+07,-80.2919
4.965333333e+07,-77.967
5.002666667e+07,-79.7145
5.040000000e+07,-80.1929
5.077333333e+07,-79.428
5.114666667e+07,-77.6523
5.152000000e+07,-76.9711
5.189333333e+07,-76.288
5.226666667e+07,-75.3202
5.264000000e+07,-70.3763
5.301333333e+07,-70.7369
5.338666667e+07,-84.2948
5.376000000e+07,-77.3804
5.413333333e+07,-74.2268
5.450666667e+07,-74.2472
5.488000000e+07,-78.6397
5.525333333e+07,-79.2208
5.562666667e+07,-71.8512
5.600000000e+07,-69.6699
5.637333333e+07,-74.4057
5.674666667e+07,-73.3037
5.712000000e+07,-71.3873
5.749333333e+07,-72.6062
5.786666667e+07,-77.6481
5.824000000e+07,-81.4514
5.861333333e+07,-78.5449
5.898666667e+07,-76.1846
5.936000000e+07,-77.728
5.973333333e+07,-36.898
6.010666667e+07,-34.5626
6.048000000e+07,-53.023
6.085333333e+07,-76.7087
6.122666667e+07,-77.5434
6.160000000e+07,-72.07
6.197333333e+07,-72.4866
6.234666667e+07,-75.5723
6.272000000e+07,-81.771
6.309333333e+07,-78.3216
6.346666667e+07,-73.4941
6.384000000e+07,-74.0778
6.421333333e+07,-68.9066
6.458666667e+07,-69.6017
6.496000000e+07,-75.1976
6.533333333e+07,-79.0821
6.570666667e+07,-70.045
6.608000000e+07,-70.5718
6.645333333e+07,-67.8343
6.682666667e+07,-69.2751
6.720000000e+07,-68.7785
6.757333333e+07,-68.6912
6.794666667e+07,-75.9655
6.832000000e+07,-70.2982
6.869333333e+07,-72.1727
6.906666667e+07,-71.9185
6.944000000e+07,-69.9725
6.981333333e+07,-71.5616
7.018666667e+07,-72.8673
7.056000000e+07,-67.2476
7.093333333e+07,-69.9843
7.130666667e+07,-74.9101
7.168000000e+07,-68.1928
7.205333333e+07,-64.3723
7.242666667e+07,-71.783
7.280000000e+07,-68.0745
7.317333333e+07,-69.3671
7.354666667e+07,-68.9485
7.392000000e+07,-69.7618
7.429333333e+07,-73.2835
7.466666667e+07,-70.9601
7.504000000e+07,-69.2993
7.541333333e+07,-72.8646
7.578666667e+07,-74.5127
7.616000000e+07,-70.0513
7.653333333e+07,-68.4067
7.690666667e+07,-74.4872
7.728000000e+07,-78.8617
7.765333333e+07,-78.1626
7.802666667e+07,-74.4501
7.840000000e+07,-68.7445
7.877333333e+07,-71.1879
7.914666667e+07,-71.0775
7.952000000e+07,-72.3152
7.989333333e+07,-75.8401
8.026666667e+07,-78.3017
8.064000000e+07,-75.4651
8.101333333e+07,-67.061
8.138666667e+07,-68.5597
8.176000000e+07,-71.4114
8.213333333e+07,-72.4272
8.250666667e+07,-67.1588
8.288000000e+07,-66.9165
8.325333333e+07,-71.3804
8.362666667e+07,-64.851
8.400000000e+07,-54.0637
8.437333333e+07,-62.8993
8.474666667e+07,-71.0129
8.512000000e+07,-74.8723
8.549333333e+07,-74.5842
8.586666667e+07,-74.6717
8.624000000e+07,-88.2101
8.661333333e+07,-73.4667
8.698666667e+07,-66.8749
8.736000000e+07,-67.9439
8.773333333e+07,-69.9507
8.810666667e+07,-68.8877
8.848000000e+07,-80.8194
8.885333333e+07,-80.3363
8.922666667e+07,-68.8789
8.960000000e+07,-61.1341
8.997333333e+07,-53.8493
9.034666667e+07,-60.8777
9.072000000e+07,-72.8993
9.109333333e+07,-68.2714
9.146666667e+07,-67.9644
9.184000000e+07,-74.0624
9.221333333e+07,-71.3969
9.258666667e+07,-70.7588
9.296000000e+07,-68.8291
9.333333333e+07,-65.4061
9.370666667e+07,-66.5219
9.408000000e+07,-67.0293
9.445333333e+07,-70.2529
9.482666667e+07,-66.2023
9.520000000e+07,-65.2946
9.557333333e+07,-55.7329
9.594666667e+07,-52.1593
9.632000000e+07,-62.9563
9.669333333e+07,-71.853
9.706666667e+07,-74.8935
9.744000000e+07,-70.3799
9.781333333e+07,-69.4715
9.818666667e+07,-71.7177
9.856000000e+07,-74.7109
9.893333333e+07,-73.6798
9.930666667e+07,-82.3524
9.968000000e+07,-66.4197
1.000533333e+08,-67.1718
1.004266667e+08,-74.7962
1.008000000e+08,-73.8964
1.011733333e+08,-78.997
1.015466667e+08,-77.0129
1.019200000e+08,-70.1432
1.022933333e+08,-69.323
1.026666667e+08,-79.7989
1.030400000e+08,-78.2452
1.034133333e+08,-77.5037
1.037866667e+08,-77.4881
1.041600000e+08,-70.5177
1.045333333e+08,-75.3461
1.049066667e+08,-80.5921
1.052800000e+08,-70.6308
1.056533333e+08,-68.7352
1.060266667e+08,-68.9797
1.064000000e+08,-71.0856
1.067733333e+08,-69.3007
1.071466667e+08,-70.3367
1.075200000e+08,-66.4376
1.078933333e+08,-51.7091
1.082666667e+08,-54.2537
1.086400000e+08,-75.9311
1.090133333e+08,-71.659
1.093866667e+08,-74.4369
1.097600000e+08,-71.5531
1.101333333e+08,-77.0705
1.105066667e+08,-73.7345
1.108800000e+08,-69.077
1.112533333e+08,-66.747
1.116266667e+08,-66.3341
1.120000000e+08,-76.6634
1.123733333e+08,-79.5115
1.127466667e+08,-73.8573
1.131200000e+08,-63.7062
1.134933333e+08,-64.5527
1.138666667e+08,-70.3448
1.142400000e+08,-69.7319
1.146133333e+08,-71.8485
1.149866667e+08,-73.9457
1.153600000e+08,-78.2378
1.157333333e+08,-74.4481
1.161066667e+08,-71.5083
1.164800000e+08,-74.1974
1.168533333e+08,-78.5738
1.172266667e+08,-79.7922
1.176000000e+08,-77.3806
1.179733333e+08,-74.9065
1.183466667e+08,-73.1501
1.187200000e+08,-74.1363
1.190933333e+08,-73.4604
1.194666667e+08,-71.5191
1.198400000e+08,-37.816
1.202133333e+08,-38.4766
1.205866667e+08,-68.2206
1.209600000e+08,-64.9821
1.213333333e+08,-66.1466
1.217066667e+08,-72.0857
1.220800000e+08,-73.9446
1.224533333e+08,-71.5957
1.228266667e+08,-70.9113
1.232000000e+08,-70.8535
1.235733333e+08,-71.2918
1.239466667e+08,-71.932
1.243200000e+08,-72.3754
1.246933333e+08,-70.7723
1.250666667e+08,-71.2952
1.254400000e+08,-71.2457
1.258133333e+08,-72.3671
1.261866667e+08,-71.1201
1.265600000e+08,-70.1898
1.269333333e+08,-73.3486
1.273066667e+08,-69.681
1.276800000e+08,-72.1242
1.280533333e+08,-76.2968
1.284266667e+08,-80.888
1.288000000e+08,-77.7387
1.291733333e+08,-76.5516
1.295466667e+08,-71.0953
1.299200000e+08,-72.5568
1.302933333e+08,-76.9805
1.306666667e+08,-75.2496
1.310400000e+08,-75.8646
1.314133333e+08,-66.467
1.317866667e+08,-50.6952
1.321600000e+08,-50.0177
1.325333333e+08,-66.4421
1.329066667e+08,-70.8524
1.332800000e+08,-72.6975
1.336533333e+08,-75.3568
1.340266667e+08,-74.3623
1.344000000e+08,-74.3768
1.347733333e+08,-79.8985
1.351466667e+08,-76.7222
1.355200000e+08,-72.241
1.358933333e+08,-71.3307
1.362666667e+08,-76.9634
1.366400000e+08,-76.5677
1.370133333e+08,-70.5115
1.373866667e+08,-70.5852
1.377600000e+08,-73.0419
1.381333333e+08,-68.9357
1.385066667e+08,-75.9549
1.388800000e+08,-77.2004
1.392533333e+08,-70.5296
1.396266667e+08,-70.8207
1.400000000e+08,-71.7427
1.403733333e+08,-74.675
1.407466667e+08,-75.7956
1.411200000e+08,-74.6512
1.414933333e+08,-71.2752
1.418666667e+08,-73.1769
1.422400000e+08,-68.1174
1.426133333e+08,-67.8057
1.429866667e+08,-67.173
1.433600000e+08,-63.6248
1.437333333e+08,-56.1935
1.441066667e+08,-61.8933
1.444800000e+08,-73.0721
1.448533333e+08,-67.4642
1.452266667e+08,-68.0353
1.456000000e+08,-69.2793
1.459733333e+08,-75.5573
1.463466667e+08,-66.3131
1.467200000e+08,-69.2221
1.470933333e+08,-78.488
1.474666667e+08,-77.6883
1.478400000e+08,-76.7446
1.482133333e+08,-73.4994
1.485866667e+08,-67.5172
1.489600000e+08,-67.9647
1.493333333e+08,-68.542
1.497066667e+08,-72.7598
1.500800000e+08,-69.0678
1.504533333e+08,-68.7798
1.508266667e+08,-74.178
1.512000000e+08,-73.8053
1.515733333e+08,-73.9489
1.519466667e+08,-71.1094
1.523200000e+08,-66.9894
1.526933333e+08,-69.0924
1.530666667e+08,-68.0648
1.534400000e+08,-63.5968
1.538133333e+08,-65.7892
1.541866667e+08,-71.1794
1.545600000e+08,-73.4205
1.549333333e+08,-71.966
1.553066667e+08,-68.5165
1.556800000e+08,-54.1736
1.560533333e+08,-49.7213
1.564266667e+08,-68.6053
1.568000000e+08,-76.8629
1.571733333e+08,-74.5048
1.575466667e+08,-76.9591
1.579200000e+08,-80.8054
1.582933333e+08,-73.6114
1.586666667e+08,-67.7901
1.590400000e+08,-71.4481
1.594133333e+08,-68.5221
1.597866667e+08,-73.312
1.601600000e+08,-67.9909
1.605333333e+08,-69.1729
1.609066667e+08,-67.302
1.612800000e+08,-66.3026
1.616533333e+08,-71.1438
1.620266667e+08,-71.1435
1.624000000e+08,-69.8647
1.627733333e+08,-69.3787
1.631466667e+08,-66.8817
1.635200000e+08,-67.0937
1.638933333e+08,-70.5216
1.642666667e+08,-70.4359
1.646400000e+08,-71.23
1.650133333e+08,-70.8048
1.653866667e+08,-69.5646
1.657600000e+08,-70.2106
1.661333333e+08,-71.7936
1.665066667e+08,-63.5993
1.668800000e+08,-66.7083
1.672533333e+08,-72.4581
1.676266667e+08,-68.9401
1.680000000e+08,-65.1328
1.683733333e+08,-67.2398
1.687466667e+08,-73.2952
1.691200000e+08,-70.2351
1.694933333e+08,-69.5219
1.698666667e+08,-68.276
1.702400000e+08,-71.3978
1.706133333e+08,-66.0809
1.709866667e+08,-65.1957
1.713600000e+08,-70.2981
1.717333333e+08,-69.4494
1.721066667e+08,-74.6445
1.724800000e+08,-69.0025
1.728533333e+08,-69.7742
1.732266667e+08,-71.5469
1.736000000e+08,-71.8333
1.739733333e+08,-77.71
1.743466667e+08,-75.4466
1.747200000e+08,-69.0695
1.750933333e+08,-65.9964
1.754666667e+08,-67.9458
1.758400000e+08,-69.3634
1.762133333e+08,-70.4354
1.765866667e+08,-70.2995
1.769600000e+08,-65.4081
1.773333333e+08,-67.0638
1.777066667e+08,-73.646
1.780800000e+08,-70.3726
1.784533333e+08,-67.876
1.788266667e+08,-67.0954
1.792000000e+08,-74.1665
1.795733333e+08,-55.938
1.799466667e+08,-41.8371
1.803200000e+08,-46.8447
1.806933333e+08,-69.3104
1.810666667e+08,-73.761
1.814400000e+08,-71.5698
1.818133333e+08,-73.7071
1.821866667e+08,-72.2608
1.825600000e+08,-70.226
1.829333333e+08,-75.6527
1.833066667e+08,-67.3172
1.836800000e+08,-67.7401
1.840533333e+08,-75.3486
1.844266667e+08,-70.3343
1.848000000e+08,-70.9737
1.851733333e+08,-72.1391
1.855466667e+08,-71.605
1.859200000e+08,-72.8626
1.862933333e+08,-72.0636
1.866666667e+08,-68.1928
1.870400000e+08,-69.9978
1.874133333e+08,-72.0368
1.877866667e+08,-69.1893
1.881600000e+08,-68.7893
1.885333333e+08,-68.2394
1.889066667e+08,-66.2544
1.892800000e+08,-67.6758
1.896533333e+08,-69.2913
1.900266667e+08,-69.8303
1.904000000e+08,-73.674
1.907733333e+08,-68.6628
1.911466667e+08,-72.9942
1.915200000e+08,-54.8229
1.918933333e+08,-54.1521
1.922666667e+08,-65.5916
1.926400000e+08,-71.8236
1.930133333e+08,-67.3959
1.933866667e+08,-67.0706
1.937600000e+08,-63.3057
1.941333333e+08,-64.5373
1.945066667e+08,-72.9975
1.948800000e+08,-70.8384
1.952533333e+08,-70.0957
1.956266667e+08,-72.7385
1.960000000e+08,-68.2457
1.963733333e+08,-74.4539
1.967466667e+08,-74.1666
1.971200000e+08,-69.7236
1.974933333e+08,-75.5519
1.978666667e+08,-71.4562
1.982400000e+08,-72.9917
1.986133333e+08,-69.6628
1.989866667e+08,-78.7192
1.993600000e+08,-69.2938
1.997333333e+08,-68.9151
2.001066667e+08,-69.3799
2.004800000e+08,-72.7455
2.008533333e+08,-70.6606
2.012266667e+08,-72.954
2.016000000e+08,-65.3063
2.019733333e+08,-64.9461
2.023466667e+08,-75.165
2.027200000e+08,-68.0549
2.030933333e+08,-66.6705
2.034666667e+08,-66.9083
2.038400000e+08,-48.507
2.042133333e+08,-48.9164
2.045866667e+08,-70.4633
2.049600000e+08,-72.3466
2.053333333e+08,-79.3547
2.057066667e+08,-70.2463
2.060800000e+08,-70.2525
2.064533333e+08,-64.1282
2.068266667e+08,-63.227
2.072000000e+08,-67.6073
2.075733333e+08,-70.2228
2.079466667e+08,-70.8404
2.083200000e+08,-65.7003
2.086933333e+08,-68.6435
2.090666667e+08,-71.9412
2.094400000e+08,-65.4844
2.098133333e+08,-64.3196
2.101866667e+08,-74.8267
2.105600000e+08,-66.6775
2.109333333e+08,-69.5186
2.113066667e+08,-64.2541
2.116800000e+08,-66.939
2.120533333e+08,-65.1564
2.124266667e+08,-69.1678
2.128000000e+08,-66.1852
2.131733333e+08,-66.5629
2.135466667e+08,-65.7619
2.139200000e+08,-74.4693
2.142933333e+08,-67.7465
2.146666667e+08,-65.7385
2.150400000e+08,-69.0458
2.154133333e+08,-62.8834
2.157866667e+08,-61.7068
2.161600000e+08,-61.4543
2.165333333e+08,-64.5213
2.169066667e+08,-61.0556
2.172800000e+08,-62.9005
2.176533333e+08,-65.6663
2.180266667e+08,-70.3248
2.184000000e+08,-68.1108
2.187733333e+08,-68.8474
2.191466667e+08,-72.2636
2.195200000e+08,-68.8318
2.198933333e+08,-67.584
2.202666667e+08,-68.3555
2.206400000e+08,-66.5318
2.210133333e+08,-66.2241
2.213866667e+08,-75.5531
2.217600000e+08,-72.0989
2.221333333e+08,-72.6799
2.225066667e+08,-64.3238
2.228800000e+08,-66.739
2.232533333e+08,-69.7327
2.236266667e+08,-70.3463
2.240000000e+08,-74.8571
2.243733333e+08,-72.2624
2.247466667e+08,-67.6283
2.251200000e+08,-71.3824
2.254933333e+08,-69.7193
2.258666667e+08,-68.8871
2.262400000e+08,-71.4574
2.266133333e+08,-69.5016
2.269866667e+08,-75.1196
2.273600000e+08,-73.4286
2.277333333e+08,-49.4345
2.281066667e+08,-47.4386
2.284800000e+08,-64.3361
2.288533333e+08,-65.0909
2.292266667e+08,-68.9661
2.296000000e+08,-73.1737
2.299733333e+08,-83.4893
2.303466667e+08,-74.7617
2.307200000e+08,-70.7074
2.310933333e+08,-69.6316
2.314666667e+08,-71.1503
2.318400000e+08,-74.7076
2.322133333e+08,-77.5842
2.325866667e+08,-71.6226
2.329600000e+08,-72.9421
2.333333333e+08,-75.2433
2.337066667e+08,-70.9853
2.340800000e+08,-70.7668
2.344533333e+08,-71.7327
2.348266667e+08,-69.0697
2.352000000e+08,-70.2667
2.355733333e+08,-71.4444
2.359466667e+08,-73.0247
2.363200000e+08,-73.4782
2.366933333e+08,-79.7956
2.370666667e+08,-75.7062
2.374400000e+08,-69.912
2.378133333e+08,-69.5595
2.381866667e+08,-73.4706
2.385600000e+08,-77.112
2.389333333e+08,-73.5436
2.393066667e+08,-54.6405
2.396800000e+08,-46.0287
2.400533333e+08,-44.6654
2.404266667e+08,-58.2055
2.408000000e+08,-72.2488
2.411733333e+08,-69.5059
2.415466667e+08,-69.8022
2.419200000e+08,-72.6932
2.422933333e+08,-70.9676
2.426666667e+08,-74.1056
2.430400000e+08,-69.8483
2.434133333e+08,-76.0241
2.437866667e+08,-71.3605
2.441600000e+08,-74.1218
2.445333333e+08,-75.9962
2.449066667e+08,-73.9183
2.452800000e+08,-73.3072
2.456533333e+08,-72.7536
2.460266667e+08,-80.0193
2.464000000e+08,-72.5045
2.467733333e+08,-70.8263
2.471466667e+08,-72.3909
2.475200000e+08,-75.4716
2.478933333e+08,-71.4323
2.482666667e+08,-72.6409
2.486400000e+08,-75.3471
2.490133333e+08,-71.4855
2.493866667e+08,-79.1738
2.497600000e+08,-70.7727
2.501333333e+08,-72.9053
2.505066667e+08,-85.6531
2.508800000e+08,-79.5868
2.512533333e+08,-76.5881
2.516266667e+08,-58.404
2.520000000e+08,-47.6497
2.523733333e+08,-55.7782
2.527466667e+08,-79.0951
2.531200000e+08,-77.7457
2.534933333e+08,-73.9218
2.538666667e+08,-72.7679
2.542400000e+08,-70.882
2.546133333e+08,-71.1249
2.549866667e+08,-73.5645
2.553600000e+08,-76.9266
2.557333333e+08,-81.9207
2.561066667e+08,-76.7301
2.564800000e+08,-74.1159
2.568533333e+08,-69.5447
2.572266667e+08,-69.1577
2.576000000e+08,-83.4826
2.579733333e+08,-75.8569
2.583466667e+08,-77.1595
2.587200000e+08,-71.9983
2.590933333e+08,-74.204
2.594666667e+08,-75.1037
2.598400000e+08,-75.3437
2.602133333e+08,-70.3678
2.605866667e+08,-72.0628
2.609600000e+08,-74.6227
2.613333333e+08,-72.5095
2.617066667e+08,-71.04
2.620800000e+08,-75.7536
2.624533333e+08,-74.8096
2.628266667e+08,-73.8689
2.632000000e+08,-65.5466
2.635733333e+08,-57.0819
2.639466667e+08,-60.2956
2.643200000e+08,-65.0714
2.646933333e+08,-74.1092
2.650666667e+08,-72.1067
2.654400000e+08,-70.8703
2.658133333e+08,-71.4765
2.661866667e+08,-71.7966
2.665600000e+08,-73.2847
2.669333333e+08,-71.6358
2.673066667e+08,-72.0358
2.676800000e+08,-75.5369
2.680533333e+08,-84.0441
2.684266667e+08,-71.5364
2.688000000e+08,-70.5397
2.691733333e+08,-72.6354
2.695466667e+08,-71.1102
2.699200000e+08,-56.1568
2.702933333e+08,-60.1958
2.706666667e+08,-73.6529
2.710400000e+08,-82.4483
2.714133333e+08,-65.5292
2.717866667e+08,-65.553
2.721600000e+08,-74.9396
2.725333333e+08,-70.8716
2.729066667e+08,-75.4929
2.732800000e+08,-74.4751
2.736533333e+08,-70.6709
2.740266667e+08,-74.4066
2.744000000e+08,-70.4264
2.747733333e+08,-74.3305
2.751466667e+08,-74.9645
2.755200000e+08,-64.4424
2.758933333e+08,-45.8538
2.762666667e+08,-47.7725
2.766400000e+08,-72.7579
2.770133333e+08,-70.9777
2.773866667e+08,-72.1863
2.777600000e+08,-75.0984
2.781333333e+08,-75.5442
2.785066667e+08,-71.6644
2.788800000e+08,-71.5126
2.792533333e+08,-71.0158
2.796266667e+08,-71.7323
2.800000000e+08,-73.0643

