Model,MDO3104
Firmware Version,1.30

Waveform Type,RF_FD
Point Format,Y
Horizontal Units,Hz
Horizontal Scale,2.8e+07
,
Sample Interval,373333
Record Length,751
Gating,0.133155792277% to 100.0%
Probe Attenuation,1
Vertical Units,dBm
Vertical Offset,0
Vertical Scale,10
Vertical Position,0
Center Frequency,1.4e+08
Span,2.8e+08
Reference Level,-15
Label,
FREQUENCY,FD NORM
0.000000000e+00,-65.4074
3.733333333e+05,-74.346
7.466666667e+05,-77.5841
1.120000000e+06,-76.0642
1.493333333e+06,-68.644
1.866666667e+06,-67.1974
2.240000000e+06,-69.8039
2.613333333e+06,-70.4123
2.986666667e+06,-66.8869
3.360000000e+06,-63.0713
3.733333333e+06,-63.5999
4.106666667e+06,-60.869
4.480000000e+06,-59.4281
4.853333333e+06,-68.3404
5.226666667e+06,-67.6212
5.600000000e+06,-66.0948
5.973333333e+06,-61.3967
6.346666667e+06,-68.5619
6.720000000e+06,-70.6415
7.093333333e+06,-71.3156
7.466666667e+06,-69.9267
7.840000000e+06,-68.8534
8.213333333e+06,-68.3938
8.586666667e+06,-76.4128
8.960000000e+06,-71.5516
9.333333333e+06,-70.9524
9.706666667e+06,-66.1807
1.008000000e+07,-68.539
1.045333333e+07,-77.2388
1.082666667e+07,-68.558
1.120000000e+07,-66.6293
1.157333333e+07,-66.7054
1.194666667e+07,-59.5837
1.232000000e+07,-65.4937
1.269333333e+07,-68.6984
1.306666667e+07,-72.3954
1.344000000e+07,-71.5406
1.381333333e+07,-65.5995
1.418666667e+07,-73.7763
1.456000000e+07,-70.1425
1.493333333e+07,-72.0993
1.530666667e+07,-68.3098
1.568000000e+07,-71.4998
1.605333333e+07,-70.7968
1.642666667e+07,-70.131
1.680000000e+07,-64.1793
1.717333333e+07,-65.6759
1.754666667e+07,-70.8854
1.792000000e+07,-55.1815
1.829333333e+07,-57.9359
1.866666667e+07,-76.8671
1.904000000e+07,-62.3291
1.941333333e+07,-62.9732
1.978666667e+07,-72.0574
2.016000000e+07,-68.8544
2.053333333e+07,-71.4461
2.090666667e+07,-80.2042
2.128000000e+07,-72.5542
2.165333333e+07,-66.0173
2.202666667e+07,-65.1084
2.240000000e+07,-67.2019
2.277333333e+07,-66.1615
2.314666667e+07,-63.0362
2.352000000e+07,-65.917
2.389333333e+07,-71.2617
2.426666667e+07,-67.9333
2.464000000e+07,-59.0872
2.501333333e+07,-52.6351
2.538666667e+07,-58.1803
2.576000000e+07,-67.3997
2.613333333e+07,-61.6322
2.650666667e+07,-68.8069
2.688000000e+07,-72.0851
2.725333333e+07,-62.5496
2.762666667e+07,-68.1519
2.800000000e+07,-68.8847
2.837333333e+07,-76.7385
2.874666667e+07,-71.8274
2.912000000e+07,-72.9563
2.949333333e+07,-90.0883
2.986666667e+07,-58.4218
3.024000000e+07,-58.8764
3.061333333e+07,-74.3718
3.098666667e+07,-75.8353
3.136000000e+07,-70.0359
3.173333333e+07,-75.1052
3.210666667e+07,-70.0734
3.248000000e+07,-59.2371
3.285333333e+07,-58.217
3.322666667e+07,-74.1202
3.360000000e+07,-74.6302
3.397333333e+07,-75.037
3.434666667e+07,-74.3291
3.472000000e+07,-69.8814
3.509333333e+07,-61.24
3.546666667e+07,-58.5994
3.584000000e+07,-47.1063
3.621333333e+07,-47.7207
3.658666667e+07,-67.245
3.696000000e+07,-68.0068
3.733333333e+07,-74.9998
3.770666667e+07,-65.1432
3.808000000e+07,-59.7814
3.845333333e+07,-65.801
3.882666667e+07,-68.3165
3.920000000e+07,-69.1619
3.957333333e+07,-73.9251
3.994666667e+07,-75.9599
4.032000000e+07,-69.8246
4.069333333e+07,-60.9543
4.106666667e+07,-62.9606
4.144000000e+07,-64.2721
4.181333333e+07,-53.5496
4.218666667e+07,-53.7119
4.256000000e+07,-67.2788
4.293333333e+07,-66.9818
4.330666667e+07,-60.6208
4.368000000e+07,-62.4281
4.405333333e+07,-62.039
4.442666667e+07,-69.7242
4.480000000e+07,-74.4344
4.517333333e+07,-68.9825
4.554666667e+07,-67.3138
4.592000000e+07,-61.8677
4.629333333e+07,-61.3013
4.666666667e+07,-58.8353
4.704000000e+07,-64.511
4.741333333e+07,-64.7471
4.778666667e+07,-38.1741
4.816000000e+07,-37.3371
4.853333333e+07,-64.0531
4.890666667e+07,-61.8807
4.928000000e+07,-58.8386
4.965333333e+07,-65.6604
5.002666667e+07,-66.2886
5.040000000e+07,-66.2815
5.077333333e+07,-69.5156
5.114666667e+07,-67.4878
5.152000000e+07,-65.0992
5.189333333e+07,-55.2169
5.226666667e+07,-59.985
5.264000000e+07,-68.1846
5.301333333e+07,-70.3038
5.338666667e+07,-70.9052
5.376000000e+07,-50.3807
5.413333333e+07,-48.6743
5.450666667e+07,-55.5972
5.488000000e+07,-57.3077
5.525333333e+07,-68.1783
5.562666667e+07,-69.9596
5.600000000e+07,-74.6644
5.637333333e+07,-71.1787
5.674666667e+07,-71.4401
5.712000000e+07,-53.1104
5.749333333e+07,-53.064
5.786666667e+07,-69.8343
5.824000000e+07,-70.6091
5.861333333e+07,-70.2489
5.898666667e+07,-78.311
5.936000000e+07,-68.2054
5.973333333e+07,-33.687
6.010666667e+07,-31.2912
6.048000000e+07,-49.4187
6.085333333e+07,-74.892
6.122666667e+07,-77.1297
6.160000000e+07,-81.8844
6.197333333e+07,-76.5525
6.234666667e+07,-60.2562
6.272000000e+07,-53.2462
6.309333333e+07,-66.3424
6.346666667e+07,-73.9698
6.384000000e+07,-75.5149
6.421333333e+07,-72.9406
6.458666667e+07,-71.9148
6.496000000e+07,-64.1757
6.533333333e+07,-54.266
6.570666667e+07,-50.239
6.608000000e+07,-46.2356
6.645333333e+07,-61.9522
6.682666667e+07,-68.921
6.720000000e+07,-74.3528
6.757333333e+07,-72.1704
6.794666667e+07,-56.6567
6.832000000e+07,-58.5916
6.869333333e+07,-62.5724
6.906666667e+07,-63.592
6.944000000e+07,-65.1277
6.981333333e+07,-66.2672
7.018666667e+07,-64.4256
7.056000000e+07,-57.4577
7.093333333e+07,-56.6761
7.130666667e+07,-60.9283
7.168000000e+07,-47.3865
7.205333333e+07,-41.6764
7.242666667e+07,-52.6741
7.280000000e+07,-68.2132
7.317333333e+07,-58.5605
7.354666667e+07,-57.0425
7.392000000e+07,-58.9585
7.429333333e+07,-64.1375
7.466666667e+07,-64.1523
7.504000000e+07,-61.475
7.541333333e+07,-62.6671
7.578666667e+07,-59.8498
7.616000000e+07,-58.7097
7.653333333e+07,-56.7166
7.690666667e+07,-61.2663
7.728000000e+07,-62.635
7.765333333e+07,-55.4396
7.802666667e+07,-48.7231
7.840000000e+07,-57.0396
7.877333333e+07,-60.1105
7.914666667e+07,-55.4521
7.952000000e+07,-57.22
7.989333333e+07,-61.9165
8.026666667e+07,-67.5319
8.064000000e+07,-65.6459
8.101333333e+07,-63.8507
8.138666667e+07,-63.3473
8.176000000e+07,-54.906
8.213333333e+07,-55.4329
8.250666667e+07,-70.7549
8.288000000e+07,-71.8746
8.325333333e+07,-67.6
8.362666667e+07,-52.0718
8.400000000e+07,-42.9626
8.437333333e+07,-49.694
8.474666667e+07,-53.4282
8.512000000e+07,-63.0452
8.549333333e+07,-69.0045
8.586666667e+07,-64.6546
8.624000000e+07,-67.531
8.661333333e+07,-68.0342
8.698666667e+07,-59.8589
8.736000000e+07,-53.7184
8.773333333e+07,-65.5104
8.810666667e+07,-70.007
8.848000000e+07,-66.1473
8.885333333e+07,-71.1558
8.922666667e+07,-71.3475
8.960000000e+07,-58.3138
8.997333333e+07,-48.2357
9.034666667e+07,-54.4744
9.072000000e+07,-69.0946
9.109333333e+07,-69.5045
9.146666667e+07,-65.2639
9.184000000e+07,-66.4554
9.221333333e+07,-67.4232
9.258666667e+07,-54.4109
9.296000000e+07,-57.2674
9.333333333e+07,-78.1259
9.370666667e+07,-70.998
9.408000000e+07,-67.2958
9.445333333e+07,-68.7251
9.482666667e+07,-64.3446
9.520000000e+07,-51.9584
9.557333333e+07,-49.2235
9.594666667e+07,-42.4055
9.632000000e+07,-48.1539
9.669333333e+07,-70.0475
9.706666667e+07,-64.011
9.744000000e+07,-64.4382
9.781333333e+07,-55.7722
9.818666667e+07,-53.9343
9.856000000e+07,-64.6185
9.893333333e+07,-64.9574
9.930666667e+07,-62.8374
9.968000000e+07,-63.5232
1.000533333e+08,-64.5333
1.004266667e+08,-57.5372
1.008000000e+08,-52.4115
1.011733333e+08,-57.3474
1.015466667e+08,-60.6792
1.019200000e+08,-58.2179
1.022933333e+08,-61.6704
1.026666667e+08,-64.2284
1.030400000e+08,-62.379
1.034133333e+08,-54.8663
1.037866667e+08,-57.6266
1.041600000e+08,-61.9252
1.045333333e+08,-63.7765
1.049066667e+08,-65.7839
1.052800000e+08,-65.5178
1.056533333e+08,-61.5825
1.060266667e+08,-55.5381
1.064000000e+08,-54.0097
1.067733333e+08,-54.8487
1.071466667e+08,-61.1736
1.075200000e+08,-62.1656
1.078933333e+08,-45.9646
1.082666667e+08,-48.2575
1.086400000e+08,-57.5578
1.090133333e+08,-55.3818
1.093866667e+08,-53.8154
1.097600000e+08,-63.0519
1.101333333e+08,-65.4801
1.105066667e+08,-65.6613
1.108800000e+08,-65.6307
1.112533333e+08,-60.6122
1.116266667e+08,-56.6821
1.120000000e+08,-51.2275
1.123733333e+08,-60.7613
1.127466667e+08,-65.3824
1.131200000e+08,-69.0967
1.134933333e+08,-66.4101
1.138666667e+08,-68.1583
1.142400000e+08,-67.8529
1.146133333e+08,-52.9884
1.149866667e+08,-59.3171
1.153600000e+08,-76.2148
1.157333333e+08,-69.8257
1.161066667e+08,-71.2191
1.164800000e+08,-77.9295
1.168533333e+08,-68.284
1.172266667e+08,-49.4838
1.176000000e+08,-52.3734
1.179733333e+08,-70.5826
1.183466667e+08,-71.3115
1.187200000e+08,-71.5194
1.190933333e+08,-68.6728
1.194666667e+08,-58.545
1.198400000e+08,-33.9051
1.202133333e+08,-34.6148
1.205866667e+08,-66.2013
1.209600000e+08,-72.6282
1.213333333e+08,-72.4122
1.217066667e+08,-72.8781
1.220800000e+08,-74.9147
1.224533333e+08,-50.9565
1.228266667e+08,-49.6584
1.232000000e+08,-63.8892
1.235733333e+08,-64.0568
1.239466667e+08,-66.9694
1.243200000e+08,-65.4924
1.246933333e+08,-66.9404
1.250666667e+08,-56.7513
1.254400000e+08,-52.0408
1.258133333e+08,-55.3588
1.261866667e+08,-55.2918
1.265600000e+08,-69.5475
1.269333333e+08,-67.0937
1.273066667e+08,-63.305
1.276800000e+08,-57.4827
1.280533333e+08,-50.0163
1.284266667e+08,-57.8789
1.288000000e+08,-59.03
1.291733333e+08,-63.1094
1.295466667e+08,-63.554
1.299200000e+08,-63.736
1.302933333e+08,-59.2539
1.306666667e+08,-53.427
1.310400000e+08,-57.4616
1.314133333e+08,-60.8647
1.317866667e+08,-45.7119
1.321600000e+08,-44.6069
1.325333333e+08,-62.1719
1.329066667e+08,-59.8041
1.332800000e+08,-51.2133
1.336533333e+08,-52.1547
1.340266667e+08,-53.7185
1.344000000e+08,-60.6538
1.347733333e+08,-61.9617
1.351466667e+08,-60.7052
1.355200000e+08,-62.1564
1.358933333e+08,-55.9229
1.362666667e+08,-54.7277
1.366400000e+08,-53.9083
1.370133333e+08,-59.8643
1.373866667e+08,-71.8348
1.377600000e+08,-69.6112
1.381333333e+08,-65.5588
1.385066667e+08,-58.2646
1.388800000e+08,-55.2575
1.392533333e+08,-50.5835
1.396266667e+08,-56.6495
1.400000000e+08,-63.4565
1.403733333e+08,-64.2503
1.407466667e+08,-63.6833
1.411200000e+08,-60.296
1.414933333e+08,-59.9278
1.418666667e+08,-52.7091
1.422400000e+08,-56.1761
1.426133333e+08,-64.3814
1.429866667e+08,-66.2002
1.433600000e+08,-64.5996
1.437333333e+08,-54.1192
1.441066667e+08,-48.3422
1.444800000e+08,-48.7909
1.448533333e+08,-50.0865
1.452266667e+08,-67.6414
1.456000000e+08,-72.4165
1.459733333e+08,-69.6233
1.463466667e+08,-75.0702
1.467200000e+08,-67.2282
1.470933333e+08,-53.2126
1.474666667e+08,-52.0392
1.478400000e+08,-65.4236
1.482133333e+08,-67.0684
1.485866667e+08,-71.5322
1.489600000e+08,-69.8085
1.493333333e+08,-71.3751
1.497066667e+08,-51.5587
1.500800000e+08,-47.618
1.504533333e+08,-62.1488
1.508266667e+08,-69.8442
1.512000000e+08,-70.2006
1.515733333e+08,-66.8379
1.519466667e+08,-67.7287
1.523200000e+08,-57.2313
1.526933333e+08,-50.8673
1.530666667e+08,-60.7961
1.534400000e+08,-66.4087
1.538133333e+08,-69.1305
1.541866667e+08,-67.7701
1.545600000e+08,-72.3964
1.549333333e+08,-58.7414
1.553066667e+08,-47.9047
1.556800000e+08,-52.4417
1.560533333e+08,-52.6183
1.564266667e+08,-63.9042
1.568000000e+08,-67.439
1.571733333e+08,-65.4484
1.575466667e+08,-64.8787
1.579200000e+08,-51.2939
1.582933333e+08,-52.1343
1.586666667e+08,-62.6326
1.590400000e+08,-61.7273
1.594133333e+08,-64.0471
1.597866667e+08,-62.4952
1.601600000e+08,-58.2215
1.605333333e+08,-50.7577
1.609066667e+08,-50.0396
1.612800000e+08,-54.6589
1.616533333e+08,-58.5081
1.620266667e+08,-56.822
1.624000000e+08,-61.3454
1.627733333e+08,-62.4184
1.631466667e+08,-56.2253
1.635200000e+08,-53.6092
1.638933333e+08,-54.4704
1.642666667e+08,-60.7314
1.646400000e+08,-66.0593
1.650133333e+08,-62.8092
1.653866667e+08,-62.4515
1.657600000e+08,-55.7146
1.661333333e+08,-51.2328
1.665066667e+08,-51.2089
1.668800000e+08,-55.6085
1.672533333e+08,-61.5519
1.676266667e+08,-54.8159
1.680000000e+08,-46.2934
1.683733333e+08,-53.0642
1.687466667e+08,-57.0086
1.691200000e+08,-53.105
1.694933333e+08,-55.0696
1.698666667e+08,-61.5458
1.702400000e+08,-65.7706
1.706133333e+08,-65.3573
1.709866667e+08,-62.1401
1.713600000e+08,-56.322
1.717333333e+08,-48.7461
1.721066667e+08,-48.3607
1.724800000e+08,-59.6551
1.728533333e+08,-65.9899
1.732266667e+08,-68.704
1.736000000e+08,-67.1018
1.739733333e+08,-59.5693
1.743466667e+08,-56.0698
1.747200000e+08,-51.946
1.750933333e+08,-61.0672
1.754666667e+08,-69.7391
1.758400000e+08,-68.7049
1.762133333e+08,-75.3428
1.765866667e+08,-73.2462
1.769600000e+08,-54.0601
1.773333333e+08,-46.9947
1.777066667e+08,-55.0594
1.780800000e+08,-66.5149
1.784533333e+08,-69.0936
1.788266667e+08,-69.958
1.792000000e+08,-73.0126
1.795733333e+08,-53.3629
1.799466667e+08,-41.9367
1.803200000e+08,-47.4796
1.806933333e+08,-70.9103
1.810666667e+08,-78.363
1.814400000e+08,-72.3667
1.818133333e+08,-74.4661
1.821866667e+08,-62.5662
1.825600000e+08,-46.2966
1.829333333e+08,-47.849
1.833066667e+08,-76.5979
1.836800000e+08,-72.3643
1.840533333e+08,-71.6266
1.844266667e+08,-70.0408
1.848000000e+08,-66.505
1.851733333e+08,-51.5123
1.855466667e+08,-51
1.859200000e+08,-61.4388
1.862933333e+08,-62.8142
1.866666667e+08,-70.2272
1.870400000e+08,-66.0067
1.874133333e+08,-63.0563
1.877866667e+08,-50.9314
1.881600000e+08,-48.6944
1.885333333e+08,-56.0167
1.889066667e+08,-57.9639
1.892800000e+08,-59.1966
1.896533333e+08,-64.8879
1.900266667e+08,-64.1931
1.904000000e+08,-59.1031
1.907733333e+08,-53.8819
1.911466667e+08,-59.1348
1.915200000e+08,-57.2777
1.918933333e+08,-47.4775
1.922666667e+08,-48.7622
1.926400000e+08,-66.2274
1.930133333e+08,-56.5657
1.933866667e+08,-49.7535
1.937600000e+08,-49.6978
1.941333333e+08,-51.0301
1.945066667e+08,-59.745
1.948800000e+08,-60.848
1.952533333e+08,-62.9992
1.956266667e+08,-63.7715
1.960000000e+08,-57.2111
1.963733333e+08,-55.6842
1.967466667e+08,-54.8103
1.971200000e+08,-62.3732
1.974933333e+08,-64.8361
1.978666667e+08,-58.5363
1.982400000e+08,-58.6768
1.986133333e+08,-54.9292
1.989866667e+08,-51.5703
1.993600000e+08,-48.9844
1.997333333e+08,-57.8905
2.001066667e+08,-63.183
2.004800000e+08,-67.8328
2.008533333e+08,-67.1151
2.012266667e+08,-64.589
2.016000000e+08,-60.1726
2.019733333e+08,-52.3989
2.023466667e+08,-56.4334
2.027200000e+08,-69.5564
2.030933333e+08,-75.2583
2.034666667e+08,-69.6927
2.038400000e+08,-43.1733
2.042133333e+08,-43.3528
2.045866667e+08,-46.9601
2.049600000e+08,-52.0602
2.053333333e+08,-73.4123
2.057066667e+08,-74.9393
2.060800000e+08,-68.8846
2.064533333e+08,-62.5674
2.068266667e+08,-61.7151
2.072000000e+08,-52.4837
2.075733333e+08,-55.6168
2.079466667e+08,-72.0876
2.083200000e+08,-64.7747
2.086933333e+08,-66.419
2.090666667e+08,-61.8718
2.094400000e+08,-64.467
2.098133333e+08,-46.5932
2.101866667e+08,-46.4113
2.105600000e+08,-65.4666
2.109333333e+08,-64.5733
2.113066667e+08,-67.5713
2.116800000e+08,-68.4139
2.120533333e+08,-64.3126
2.124266667e+08,-53.4579
2.128000000e+08,-51.4389
2.131733333e+08,-76.4746
2.135466667e+08,-66.4506
2.139200000e+08,-64.8445
2.142933333e+08,-64.762
2.146666667e+08,-63.7623
2.150400000e+08,-51.8763
2.154133333e+08,-46.3375
2.157866667e+08,-49.0727
2.161600000e+08,-47.8688
2.165333333e+08,-70.2493
2.169066667e+08,-66.1799
2.172800000e+08,-60.4101
2.176533333e+08,-58.1857
2.180266667e+08,-51.6847
2.184000000e+08,-58.4044
2.187733333e+08,-62.5298
2.191466667e+08,-61.7087
2.195200000e+08,-60.2815
2.198933333e+08,-61.1068
2.202666667e+08,-56.9146
2.206400000e+08,-48.757
2.210133333e+08,-52.1765
2.213866667e+08,-52.8847
2.217600000e+08,-58.9179
2.221333333e+08,-63.9947
2.225066667e+08,-66.2363
2.228800000e+08,-71.3411
2.232533333e+08,-56.5282
2.236266667e+08,-56.5769
2.240000000e+08,-57.1462
2.243733333e+08,-71.3072
2.247466667e+08,-72.4597
2.251200000e+08,-62.9387
2.254933333e+08,-60.59
2.258666667e+08,-52.1282
2.262400000e+08,-50.2324
2.266133333e+08,-49.3282
2.269866667e+08,-54.9944
2.273600000e+08,-60.5221
2.277333333e+08,-56.3105
2.281066667e+08,-53.8547
2.284800000e+08,-60.8947
2.288533333e+08,-58.3963
2.292266667e+08,-54.094
2.296000000e+08,-58.4446
2.299733333e+08,-62.8226
2.303466667e+08,-66.8943
2.307200000e+08,-71.6015
2.310933333e+08,-62.352
2.314666667e+08,-55.8737
2.318400000e+08,-47.0845
2.322133333e+08,-49.5181
2.325866667e+08,-62.1984
2.329600000e+08,-66.7081
2.333333333e+08,-70.0652
2.337066667e+08,-65.0375
2.340800000e+08,-62.2994
2.344533333e+08,-53.5428
2.348266667e+08,-54.0762
2.352000000e+08,-66.2193
2.355733333e+08,-66.6298
2.359466667e+08,-71.0649
2.363200000e+08,-70.4354
2.366933333e+08,-65.6123
2.370666667e+08,-47.7079
2.374400000e+08,-45.9718
2.378133333e+08,-61.8584
2.381866667e+08,-64.0364
2.385600000e+08,-73.8927
2.389333333e+08,-79.0525
2.393066667e+08,-53.2239
2.396800000e+08,-46.1341
2.400533333e+08,-44.1442
2.404266667e+08,-56.2482
2.408000000e+08,-70.5993
2.411733333e+08,-70.0892
2.415466667e+08,-71.4698
2.419200000e+08,-71.2772
2.422933333e+08,-56.0747
2.426666667e+08,-46.0593
2.430400000e+08,-53.7515
2.434133333e+08,-65.9792
2.437866667e+08,-67.2135
2.441600000e+08,-76.5866
2.445333333e+08,-76.4311
2.449066667e+08,-64.6725
2.452800000e+08,-52.3866
2.456533333e+08,-54.8346
2.460266667e+08,-71.3654
2.464000000e+08,-69.6594
2.467733333e+08,-67.7016
2.471466667e+08,-68.2631
2.475200000e+08,-59.3323
2.478933333e+08,-47.9525
2.482666667e+08,-48.4082
2.486400000e+08,-56.4557
2.490133333e+08,-60.5003
2.493866667e+08,-63.5125
2.497600000e+08,-66.7404
2.501333333e+08,-66.0455
2.505066667e+08,-55.2821
2.508800000e+08,-53.7033
2.512533333e+08,-62.0257
2.516266667e+08,-51.8208
2.520000000e+08,-41.526
2.523733333e+08,-48.173
2.527466667e+08,-63.4946
2.531200000e+08,-53.847
2.534933333e+08,-49.5707
2.538666667e+08,-52.0404
2.542400000e+08,-56.4902
2.546133333e+08,-65.0741
2.549866667e+08,-65.6334
2.553600000e+08,-66.1276
2.557333333e+08,-60.912
2.561066667e+08,-55.3426
2.564800000e+08,-56.4227
2.568533333e+08,-58.6943
2.572266667e+08,-69.9904
2.576000000e+08,-64.7326
2.579733333e+08,-66.2506
2.583466667e+08,-60.9789
2.587200000e+08,-53.7998
2.590933333e+08,-50.0107
2.594666667e+08,-50.6122
2.598400000e+08,-60.3838
2.602133333e+08,-61.611
2.605866667e+08,-63.7997
2.609600000e+08,-66.2563
2.613333333e+08,-61.5537
2.617066667e+08,-53.8796
2.620800000e+08,-53.1898
2.624533333e+08,-64.2294
2.628266667e+08,-65.0585
2.632000000e+08,-62.3235
2.635733333e+08,-60.2644
2.639466667e+08,-48.4255
2.643200000e+08,-51.8361
2.646933333e+08,-47.4616
2.650666667e+08,-56.5561
2.654400000e+08,-66.1587
2.658133333e+08,-67.6573
2.661866667e+08,-67.0444
2.665600000e+08,-74.5896
2.669333333e+08,-63.3282
2.673066667e+08,-54.2796
2.676800000e+08,-59.9901
2.680533333e+08,-69.9844
2.684266667e+08,-77.5465
2.688000000e+08,-69.8747
2.691733333e+08,-68.6721
2.695466667e+08,-63.982
2.699200000e+08,-48.6856
2.702933333e+08,-51.9099
2.706666667e+08,-69.2903
2.710400000e+08,-68.9681
2.714133333e+08,-73.4479
2.717866667e+08,-74.9279
2.721600000e+08,-70.5708
2.725333333e+08,-52.596
2.729066667e+08,-53.4226
2.732800000e+08,-77.9201
2.736533333e+08,-68.3885
2.740266667e+08,-65.3777
2.744000000e+08,-64.2742
2.747733333e+08,-69.3706
2.751466667e+08,-49.3308
2.755200000e+08,-47.9215
2.758933333e+08,-49.0135
2.762666667e+08,-51.6319
2.766400000e+08,-66.6614
2.770133333e+08,-75.1448
2.773866667e+08,-63.873
2.777600000e+08,-55.9499
2.781333333e+08,-53.2014
2.785066667e+08,-64.897
2.788800000e+08,-65.028
2.792533333e+08,-64.3054
2.796266667e+08,-67.0863
2.800000000e+08,-63.3215

