Model,MDO3104
Firmware Version,1.30

Waveform Type,RF_FD
Point Format,Y
Horizontal Units,Hz
Horizontal Scale,2.8e+07
,
Sample Interval,373333
Record Length,751
Gating,0.133155792277% to 100.0%
Probe Attenuation,1
Vertical Units,dBm
Vertical Offset,0
Vertical Scale,10
Vertical Position,0
Center Frequency,1.4e+08
Span,2.8e+08
Reference Level,-15
Label,
FREQUENCY,FD NORM
0.000000000e+00,-60.3459
3.733333333e+05,-69.3816
7.466666667e+05,-82.2443
1.120000000e+06,-81.6322
1.493333333e+06,-67.5468
1.866666667e+06,-65.6806
2.240000000e+06,-71.5294
2.613333333e+06,-67.0565
2.986666667e+06,-68.6029
3.360000000e+06,-59.8617
3.733333333e+06,-62.2168
4.106666667e+06,-65.1979
4.480000000e+06,-64.0019
4.853333333e+06,-62.1406
5.226666667e+06,-61.7892
5.600000000e+06,-70.1288
5.973333333e+06,-71.033
6.346666667e+06,-68.6369
6.720000000e+06,-64.4355
7.093333333e+06,-63.5704
7.466666667e+06,-61.6215
7.840000000e+06,-61.9883
8.213333333e+06,-60.375
8.586666667e+06,-59.3861
8.960000000e+06,-59.8532
9.333333333e+06,-56.7466
9.706666667e+06,-56.431
1.008000000e+07,-55.2302
1.045333333e+07,-55.4558
1.082666667e+07,-55.7531
1.120000000e+07,-57.1982
1.157333333e+07,-67.4231
1.194666667e+07,-65.6036
1.232000000e+07,-65.5311
1.269333333e+07,-66.049
1.306666667e+07,-60.9554
1.344000000e+07,-59.3144
1.381333333e+07,-60.2972
1.418666667e+07,-59.164
1.456000000e+07,-60.415
1.493333333e+07,-64.65
1.530666667e+07,-63.7467
1.568000000e+07,-59.9672
1.605333333e+07,-61.6562
1.642666667e+07,-64.0062
1.680000000e+07,-64.5906
1.717333333e+07,-64.7187
1.754666667e+07,-63.6149
1.792000000e+07,-69.6176
1.829333333e+07,-67.3886
1.866666667e+07,-64.5339
1.904000000e+07,-62.6169
1.941333333e+07,-63.6994
1.978666667e+07,-67.8753
2.016000000e+07,-68.6902
2.053333333e+07,-68.3347
2.090666667e+07,-67.0778
2.128000000e+07,-70.1854
2.165333333e+07,-66.3568
2.202666667e+07,-61.9919
2.240000000e+07,-63.4505
2.277333333e+07,-68.7321
2.314666667e+07,-67.5291
2.352000000e+07,-62.385
2.389333333e+07,-70.0958
2.426666667e+07,-59.5232
2.464000000e+07,-58.0751
2.501333333e+07,-53.4271
2.538666667e+07,-60.6432
2.576000000e+07,-70.7449
2.613333333e+07,-72.0514
2.650666667e+07,-61.1297
2.688000000e+07,-60.9882
2.725333333e+07,-58.3401
2.762666667e+07,-60.629
2.800000000e+07,-58.5597
2.837333333e+07,-59.3374
2.874666667e+07,-62.0526
2.912000000e+07,-59.4739
2.949333333e+07,-66.2888
2.986666667e+07,-56.1639
3.024000000e+07,-56.7086
3.061333333e+07,-64.6549
3.098666667e+07,-62.6612
3.136000000e+07,-66.5588
3.173333333e+07,-64.1807
3.210666667e+07,-62.0025
3.248000000e+07,-55.7151
3.285333333e+07,-55.331
3.322666667e+07,-57.3698
3.360000000e+07,-55.9961
3.397333333e+07,-54.0424
3.434666667e+07,-53.4248
3.472000000e+07,-51.5702
3.509333333e+07,-51.3435
3.546666667e+07,-56.4085
3.584000000e+07,-53.6238
3.621333333e+07,-54.6408
3.658666667e+07,-62.0821
3.696000000e+07,-64.1695
3.733333333e+07,-63.5695
3.770666667e+07,-58.0818
3.808000000e+07,-57.0116
3.845333333e+07,-54.1434
3.882666667e+07,-54.7076
3.920000000e+07,-55.2498
3.957333333e+07,-54.7982
3.994666667e+07,-55.9691
4.032000000e+07,-55.3229
4.069333333e+07,-52.4284
4.106666667e+07,-52.8837
4.144000000e+07,-59.1386
4.181333333e+07,-58.6433
4.218666667e+07,-61.2715
4.256000000e+07,-58.0061
4.293333333e+07,-57.8793
4.330666667e+07,-60.9312
4.368000000e+07,-60.3837
4.405333333e+07,-62.0487
4.442666667e+07,-58.6561
4.480000000e+07,-58.5382
4.517333333e+07,-56.5478
4.554666667e+07,-55.8055
4.592000000e+07,-53.323
4.629333333e+07,-51.6101
4.666666667e+07,-53.7096
4.704000000e+07,-52.4662
4.741333333e+07,-52.5204
4.778666667e+07,-44.3477
4.816000000e+07,-43.434
4.853333333e+07,-52.3696
4.890666667e+07,-54.2014
4.928000000e+07,-51.2005
4.965333333e+07,-52.8328
5.002666667e+07,-58.2039
5.040000000e+07,-54.4322
5.077333333e+07,-52.6401
5.114666667e+07,-52.738
5.152000000e+07,-52.656
5.189333333e+07,-49.5388
5.226666667e+07,-53.6528
5.264000000e+07,-49.3587
5.301333333e+07,-48.3551
5.338666667e+07,-49.2473
5.376000000e+07,-53.2809
5.413333333e+07,-53.0795
5.450666667e+07,-47.8145
5.488000000e+07,-48.8435
5.525333333e+07,-53.8381
5.562666667e+07,-63.4426
5.600000000e+07,-65.5203
5.637333333e+07,-53.673
5.674666667e+07,-52.5414
5.712000000e+07,-48.8485
5.749333333e+07,-47.966
5.786666667e+07,-49.9899
5.824000000e+07,-46.5454
5.861333333e+07,-49.7525
5.898666667e+07,-47.6122
5.936000000e+07,-50.1904
5.973333333e+07,-39.2624
6.010666667e+07,-36.5712
6.048000000e+07,-52.8917
6.085333333e+07,-53.0337
6.122666667e+07,-49.4511
6.160000000e+07,-48.6783
6.197333333e+07,-58.1601
6.234666667e+07,-55.7205
6.272000000e+07,-58.4677
6.309333333e+07,-57.2626
6.346666667e+07,-50.2995
6.384000000e+07,-48.1374
6.421333333e+07,-52.8712
6.458666667e+07,-49.9567
6.496000000e+07,-46.7214
6.533333333e+07,-46.0745
6.570666667e+07,-48.2273
6.608000000e+07,-54.0103
6.645333333e+07,-47.4468
6.682666667e+07,-48.1084
6.720000000e+07,-54.0322
6.757333333e+07,-62.9937
6.794666667e+07,-56.1486
6.832000000e+07,-56.0394
6.869333333e+07,-57.6023
6.906666667e+07,-61.397
6.944000000e+07,-55.8542
6.981333333e+07,-54.847
7.018666667e+07,-52.9257
7.056000000e+07,-55.8283
7.093333333e+07,-54.2193
7.130666667e+07,-56.01
7.168000000e+07,-54.0268
7.205333333e+07,-48.0573
7.242666667e+07,-61.3415
7.280000000e+07,-63.1285
7.317333333e+07,-60.4667
7.354666667e+07,-58.9657
7.392000000e+07,-61.598
7.429333333e+07,-63.9304
7.466666667e+07,-62.7102
7.504000000e+07,-61.1902
7.541333333e+07,-59.1086
7.578666667e+07,-57.3676
7.616000000e+07,-58.0937
7.653333333e+07,-57.2686
7.690666667e+07,-55.577
7.728000000e+07,-54.5019
7.765333333e+07,-60.3001
7.802666667e+07,-56.8251
7.840000000e+07,-55.1977
7.877333333e+07,-55.8698
7.914666667e+07,-50.6985
7.952000000e+07,-52.2499
7.989333333e+07,-58.0831
8.026666667e+07,-65.0727
8.064000000e+07,-61.9042
8.101333333e+07,-61.8594
8.138666667e+07,-59.108
8.176000000e+07,-51.3427
8.213333333e+07,-51.4668
8.250666667e+07,-58.8255
8.288000000e+07,-55.1214
8.325333333e+07,-51.805
8.362666667e+07,-51.8615
8.400000000e+07,-46.1881
8.437333333e+07,-56.5175
8.474666667e+07,-59.6702
8.512000000e+07,-55.9617
8.549333333e+07,-53.6485
8.586666667e+07,-64.5339
8.624000000e+07,-68.0249
8.661333333e+07,-68.2967
8.698666667e+07,-53.8075
8.736000000e+07,-52.5344
8.773333333e+07,-63.1398
8.810666667e+07,-64.3713
8.848000000e+07,-67.0004
8.885333333e+07,-63.2576
8.922666667e+07,-60.9402
8.960000000e+07,-61.0485
8.997333333e+07,-49.6688
9.034666667e+07,-57.8487
9.072000000e+07,-57.5013
9.109333333e+07,-63.1832
9.146666667e+07,-60.0215
9.184000000e+07,-60.7081
9.221333333e+07,-66.0862
9.258666667e+07,-50.6507
9.296000000e+07,-52.0104
9.333333333e+07,-70.1241
9.370666667e+07,-66.2279
9.408000000e+07,-66.8483
9.445333333e+07,-61.2934
9.482666667e+07,-62.9505
9.520000000e+07,-49.0921
9.557333333e+07,-48.3284
9.594666667e+07,-50.815
9.632000000e+07,-53.9845
9.669333333e+07,-60.667
9.706666667e+07,-64.6559
9.744000000e+07,-57.15
9.781333333e+07,-56.7916
9.818666667e+07,-54.7116
9.856000000e+07,-60.2768
9.893333333e+07,-59.4917
9.930666667e+07,-60.1682
9.968000000e+07,-66.4744
1.000533333e+08,-69.1448
1.004266667e+08,-65.634
1.008000000e+08,-53.0167
1.011733333e+08,-54.3763
1.015466667e+08,-63.5778
1.019200000e+08,-62.5699
1.022933333e+08,-65.5093
1.026666667e+08,-59.9772
1.030400000e+08,-62.7129
1.034133333e+08,-57.6277
1.037866667e+08,-58.1003
1.041600000e+08,-64.3269
1.045333333e+08,-64.3502
1.049066667e+08,-61.2077
1.052800000e+08,-71.1396
1.056533333e+08,-65.0884
1.060266667e+08,-54.3822
1.064000000e+08,-50.9352
1.067733333e+08,-52.7421
1.071466667e+08,-58.733
1.075200000e+08,-55.7548
1.078933333e+08,-46.6753
1.082666667e+08,-48.9559
1.086400000e+08,-56.4675
1.090133333e+08,-53.3321
1.093866667e+08,-52.0477
1.097600000e+08,-65.0163
1.101333333e+08,-69.6256
1.105066667e+08,-68.7467
1.108800000e+08,-60.1539
1.112533333e+08,-58.8287
1.116266667e+08,-53.8148
1.120000000e+08,-51.264
1.123733333e+08,-59.5676
1.127466667e+08,-64.0911
1.131200000e+08,-62.8772
1.134933333e+08,-64.3774
1.138666667e+08,-68.8889
1.142400000e+08,-57.4809
1.146133333e+08,-52.3795
1.149866667e+08,-60.5066
1.153600000e+08,-72.2757
1.157333333e+08,-66.7885
1.161066667e+08,-63.7919
1.164800000e+08,-62.6314
1.168533333e+08,-64.3467
1.172266667e+08,-49.6004
1.176000000e+08,-52.6859
1.179733333e+08,-66.7337
1.183466667e+08,-63.814
1.187200000e+08,-63.9201
1.190933333e+08,-66.7508
1.194666667e+08,-62.5287
1.198400000e+08,-35.3306
1.202133333e+08,-36.1474
1.205866667e+08,-62.092
1.209600000e+08,-65.0483
1.213333333e+08,-62.142
1.217066667e+08,-63.4658
1.220800000e+08,-66.8375
1.224533333e+08,-51.5722
1.228266667e+08,-49.5352
1.232000000e+08,-57.3841
1.235733333e+08,-73.8201
1.239466667e+08,-71.1412
1.243200000e+08,-65.0022
1.246933333e+08,-61.8296
1.250666667e+08,-58.6951
1.254400000e+08,-50.1382
1.258133333e+08,-58.7342
1.261866667e+08,-69.67
1.265600000e+08,-65.1509
1.269333333e+08,-63.8682
1.273066667e+08,-65.4866
1.276800000e+08,-58.2235
1.280533333e+08,-50.276
1.284266667e+08,-53.3273
1.288000000e+08,-58.8803
1.291733333e+08,-63.2931
1.295466667e+08,-71.6155
1.299200000e+08,-63.7883
1.302933333e+08,-62.4178
1.306666667e+08,-52.4144
1.310400000e+08,-53.2422
1.314133333e+08,-59.7769
1.317866667e+08,-48.3068
1.321600000e+08,-47.1195
1.325333333e+08,-58.4903
1.329066667e+08,-59.7256
1.332800000e+08,-51.9889
1.336533333e+08,-51.0225
1.340266667e+08,-52.2013
1.344000000e+08,-65.6752
1.347733333e+08,-65.7391
1.351466667e+08,-65.5576
1.355200000e+08,-61.8248
1.358933333e+08,-59.0004
1.362666667e+08,-53.7795
1.366400000e+08,-53.3718
1.370133333e+08,-62.8176
1.373866667e+08,-66.349
1.377600000e+08,-70.613
1.381333333e+08,-66.9367
1.385066667e+08,-63.6925
1.388800000e+08,-51.9388
1.392533333e+08,-49.3708
1.396266667e+08,-60.8531
1.400000000e+08,-61.6977
1.403733333e+08,-66.8084
1.407466667e+08,-65.5171
1.411200000e+08,-64.0089
1.414933333e+08,-56.9921
1.418666667e+08,-51.124
1.422400000e+08,-55.5683
1.426133333e+08,-65.5728
1.429866667e+08,-75.7162
1.433600000e+08,-63.2526
1.437333333e+08,-63.9322
1.441066667e+08,-53.9861
1.444800000e+08,-46.7696
1.448533333e+08,-48.4893
1.452266667e+08,-61.3944
1.456000000e+08,-59.2007
1.459733333e+08,-70.2164
1.463466667e+08,-62.3808
1.467200000e+08,-63.9077
1.470933333e+08,-50.3885
1.474666667e+08,-49.6454
1.478400000e+08,-67.4297
1.482133333e+08,-65.5868
1.485866667e+08,-68.0445
1.489600000e+08,-70.2743
1.493333333e+08,-64.9429
1.497066667e+08,-51.0669
1.500800000e+08,-47.8457
1.504533333e+08,-62.7184
1.508266667e+08,-66.5842
1.512000000e+08,-69.8868
1.515733333e+08,-70.8889
1.519466667e+08,-70.6469
1.523200000e+08,-63.6037
1.526933333e+08,-53.0504
1.530666667e+08,-66.6824
1.534400000e+08,-67.2539
1.538133333e+08,-65.6729
1.541866667e+08,-68.4817
1.545600000e+08,-69.9621
1.549333333e+08,-58.1313
1.553066667e+08,-49.66
1.556800000e+08,-50.8732
1.560533333e+08,-44.4396
1.564266667e+08,-59.5529
1.568000000e+08,-58.9439
1.571733333e+08,-61.1497
1.575466667e+08,-58.03
1.579200000e+08,-52.3619
1.582933333e+08,-51.8486
1.586666667e+08,-59.7051
1.590400000e+08,-60.1718
1.594133333e+08,-61.5126
1.597866667e+08,-63.3471
1.601600000e+08,-64.8999
1.605333333e+08,-50.1199
1.609066667e+08,-48.6893
1.612800000e+08,-54.5602
1.616533333e+08,-58.9814
1.620266667e+08,-68.1901
1.624000000e+08,-67.1843
1.627733333e+08,-61.7808
1.631466667e+08,-60.7751
1.635200000e+08,-53.4939
1.638933333e+08,-53.6555
1.642666667e+08,-62.7351
1.646400000e+08,-67.7077
1.650133333e+08,-66.4577
1.653866667e+08,-62.2093
1.657600000e+08,-62.8717
1.661333333e+08,-51.6364
1.665066667e+08,-50.2034
1.668800000e+08,-58.4939
1.672533333e+08,-61.2446
1.676266667e+08,-64.8895
1.680000000e+08,-55.1956
1.683733333e+08,-60.0536
1.687466667e+08,-58.655
1.691200000e+08,-53.2207
1.694933333e+08,-60.1764
1.698666667e+08,-68.5447
1.702400000e+08,-61.536
1.706133333e+08,-67.0605
1.709866667e+08,-60.788
1.713600000e+08,-56.6651
1.717333333e+08,-46.6642
1.721066667e+08,-47.2806
1.724800000e+08,-63.5596
1.728533333e+08,-64.0027
1.732266667e+08,-62.2076
1.736000000e+08,-65.0369
1.739733333e+08,-67.1726
1.743466667e+08,-52.3422
1.747200000e+08,-51.1571
1.750933333e+08,-63.3737
1.754666667e+08,-69.5479
1.758400000e+08,-69.5988
1.762133333e+08,-64.597
1.765866667e+08,-67.9057
1.769600000e+08,-52.6073
1.773333333e+08,-46.8886
1.777066667e+08,-58.3028
1.780800000e+08,-67.501
1.784533333e+08,-61.9486
1.788266667e+08,-62.148
1.792000000e+08,-66.5399
1.795733333e+08,-52.3002
1.799466667e+08,-38.7019
1.803200000e+08,-44.2478
1.806933333e+08,-62.6151
1.810666667e+08,-63.1814
1.814400000e+08,-64.8804
1.818133333e+08,-65.2879
1.821866667e+08,-64.2815
1.825600000e+08,-47.1431
1.829333333e+08,-48.629
1.833066667e+08,-66.3187
1.836800000e+08,-67.837
1.840533333e+08,-68.4827
1.844266667e+08,-68.3062
1.848000000e+08,-68.6757
1.851733333e+08,-52.8543
1.855466667e+08,-52.0605
1.859200000e+08,-66.7742
1.862933333e+08,-74.0565
1.866666667e+08,-66.7938
1.870400000e+08,-64.7313
1.874133333e+08,-65.6245
1.877866667e+08,-51.3996
1.881600000e+08,-47.1134
1.885333333e+08,-53.9952
1.889066667e+08,-60.7077
1.892800000e+08,-62.5677
1.896533333e+08,-65.1064
1.900266667e+08,-68.0207
1.904000000e+08,-59.5285
1.907733333e+08,-52.79
1.911466667e+08,-56.5192
1.915200000e+08,-66.5624
1.918933333e+08,-57.2325
1.922666667e+08,-57.7256
1.926400000e+08,-63.9853
1.930133333e+08,-62.1986
1.933866667e+08,-50.2421
1.937600000e+08,-50.8794
1.941333333e+08,-54.2215
1.945066667e+08,-60.0333
1.948800000e+08,-63.9715
1.952533333e+08,-61.7614
1.956266667e+08,-62.1424
1.960000000e+08,-55.7728
1.963733333e+08,-54.7306
1.967466667e+08,-57.5367
1.971200000e+08,-62.1976
1.974933333e+08,-68.341
1.978666667e+08,-69.0382
1.982400000e+08,-61.8846
1.986133333e+08,-55.5604
1.989866667e+08,-49.5826
1.993600000e+08,-49.0965
1.997333333e+08,-61.572
2.001066667e+08,-63.3164
2.004800000e+08,-63.3364
2.008533333e+08,-63.0649
2.012266667e+08,-66.0262
2.016000000e+08,-54.7136
2.019733333e+08,-53.1426
2.023466667e+08,-60.9888
2.027200000e+08,-59.306
2.030933333e+08,-69.7018
2.034666667e+08,-58.8027
2.038400000e+08,-45.5145
2.042133333e+08,-46.2858
2.045866667e+08,-47.2075
2.049600000e+08,-54.0375
2.053333333e+08,-64.4501
2.057066667e+08,-68.1263
2.060800000e+08,-69.9373
2.064533333e+08,-68.3752
2.068266667e+08,-58.7046
2.072000000e+08,-52.2362
2.075733333e+08,-58.4519
2.079466667e+08,-64.8524
2.083200000e+08,-77.3006
2.086933333e+08,-70.781
2.090666667e+08,-65.1109
2.094400000e+08,-67.0384
2.098133333e+08,-45.5511
2.101866667e+08,-45.6226
2.105600000e+08,-69.2776
2.109333333e+08,-81.8327
2.113066667e+08,-71.1606
2.116800000e+08,-65.5581
2.120533333e+08,-67.2629
2.124266667e+08,-54.1136
2.128000000e+08,-51.8914
2.131733333e+08,-60.1925
2.135466667e+08,-67.3067
2.139200000e+08,-67.0878
2.142933333e+08,-73.095
2.146666667e+08,-60.1237
2.150400000e+08,-56.189
2.154133333e+08,-46.1267
2.157866667e+08,-54.1635
2.161600000e+08,-58.0349
2.165333333e+08,-65.2761
2.169066667e+08,-63.4587
2.172800000e+08,-60.1487
2.176533333e+08,-58.5681
2.180266667e+08,-51.2087
2.184000000e+08,-54.5809
2.187733333e+08,-65.7158
2.191466667e+08,-61.1665
2.195200000e+08,-60.7713
2.198933333e+08,-61.3668
2.202666667e+08,-58.0566
2.206400000e+08,-48.3778
2.210133333e+08,-48.8428
2.213866667e+08,-55.9185
2.217600000e+08,-62.7002
2.221333333e+08,-67.2428
2.225066667e+08,-63.882
2.228800000e+08,-62.0041
2.232533333e+08,-54.6069
2.236266667e+08,-52.9919
2.240000000e+08,-57.1428
2.243733333e+08,-69.0069
2.247466667e+08,-71.5356
2.251200000e+08,-62.8077
2.254933333e+08,-64.3715
2.258666667e+08,-54.9553
2.262400000e+08,-49.3472
2.266133333e+08,-48.5456
2.269866667e+08,-55.8198
2.273600000e+08,-59.3292
2.277333333e+08,-48.7374
2.281066667e+08,-45.8797
2.284800000e+08,-60.5747
2.288533333e+08,-56.8695
2.292266667e+08,-52.3678
2.296000000e+08,-58.2029
2.299733333e+08,-62.5603
2.303466667e+08,-65.5805
2.307200000e+08,-65.7581
2.310933333e+08,-59.3345
2.314666667e+08,-54.1523
2.318400000e+08,-47.1518
2.322133333e+08,-51.687
2.325866667e+08,-62.2504
2.329600000e+08,-68.547
2.333333333e+08,-63.6973
2.337066667e+08,-62.5982
2.340800000e+08,-60.7889
2.344533333e+08,-51.5721
2.348266667e+08,-52.6071
2.352000000e+08,-66.8544
2.355733333e+08,-68.4253
2.359466667e+08,-72.3195
2.363200000e+08,-71.5574
2.366933333e+08,-64.8327
2.370666667e+08,-47.6989
2.374400000e+08,-46.2113
2.378133333e+08,-66.3868
2.381866667e+08,-71.7774
2.385600000e+08,-77.9808
2.389333333e+08,-72.1635
2.393066667e+08,-73.7499
2.396800000e+08,-53.4944
2.400533333e+08,-44.7724
2.404266667e+08,-48.1869
2.408000000e+08,-64.2718
2.411733333e+08,-63.2686
2.415466667e+08,-62.8374
2.419200000e+08,-67.6037
2.422933333e+08,-57.9255
2.426666667e+08,-46.565
2.430400000e+08,-52.3164
2.434133333e+08,-63.0497
2.437866667e+08,-61.8584
2.441600000e+08,-66.2719
2.445333333e+08,-66.4144
2.449066667e+08,-68.0327
2.452800000e+08,-52.2938
2.456533333e+08,-53.1929
2.460266667e+08,-64.8811
2.464000000e+08,-64.4619
2.467733333e+08,-64.6243
2.471466667e+08,-64.7464
2.475200000e+08,-60.9972
2.478933333e+08,-47.9595
2.482666667e+08,-47.213
2.486400000e+08,-54.7318
2.490133333e+08,-64.8887
2.493866667e+08,-66.097
2.497600000e+08,-68.943
2.501333333e+08,-68.3976
2.505066667e+08,-57.6641
2.508800000e+08,-53.7779
2.512533333e+08,-56.3163
2.516266667e+08,-55.7227
2.520000000e+08,-45.1529
2.523733333e+08,-52.3976
2.527466667e+08,-57.1468
2.531200000e+08,-53.7829
2.534933333e+08,-47.7121
2.538666667e+08,-49.4144
2.542400000e+08,-59.4518
2.546133333e+08,-66.3112
2.549866667e+08,-65.629
2.553600000e+08,-60.2672
2.557333333e+08,-64.3663
2.561066667e+08,-56.9005
2.564800000e+08,-56.3688
2.568533333e+08,-62.7232
2.572266667e+08,-65.219
2.576000000e+08,-62.71
2.579733333e+08,-65.6412
2.583466667e+08,-63.3437
2.587200000e+08,-53.2181
2.590933333e+08,-48.2141
2.594666667e+08,-49.9767
2.598400000e+08,-61.903
2.602133333e+08,-65.0044
2.605866667e+08,-68.8038
2.609600000e+08,-64.4049
2.613333333e+08,-62.4788
2.617066667e+08,-53.2327
2.620800000e+08,-53.0279
2.624533333e+08,-67.7467
2.628266667e+08,-69.0482
2.632000000e+08,-72.262
2.635733333e+08,-71.0894
2.639466667e+08,-55.6841
2.643200000e+08,-48.924
2.646933333e+08,-46.4556
2.650666667e+08,-59.5125
2.654400000e+08,-63.7692
2.658133333e+08,-64.2172
2.661866667e+08,-69.2907
2.665600000e+08,-73.092
2.669333333e+08,-60.301
2.673066667e+08,-52.7271
2.676800000e+08,-60.9456
2.680533333e+08,-74.1108
2.684266667e+08,-77.0011
2.688000000e+08,-69.2407
2.691733333e+08,-78.4948
2.695466667e+08,-66.2408
2.699200000e+08,-45.3065
2.702933333e+08,-48.4738
2.706666667e+08,-73.9012
2.710400000e+08,-68.6016
2.714133333e+08,-66.5041
2.717866667e+08,-67.9661
2.721600000e+08,-66.853
2.725333333e+08,-53.2392
2.729066667e+08,-53.5488
2.732800000e+08,-74.297
2.736533333e+08,-82.4697
2.740266667e+08,-66.3463
2.744000000e+08,-64.8339
2.747733333e+08,-67.1717
2.751466667e+08,-50.8547
2.755200000e+08,-49.0033
2.758933333e+08,-45.455
2.762666667e+08,-48.0679
2.766400000e+08,-63.1632
2.770133333e+08,-62.5161
2.773866667e+08,-63.3354
2.777600000e+08,-59.9319
2.781333333e+08,-52.7409
2.785066667e+08,-60.66
2.788800000e+08,-67.0422
2.792533333e+08,-62.7944
2.796266667e+08,-65.1004
2.800000000e+08,-63.4186

