Model,MDO3104
Firmware Version,1.30

Waveform Type,RF_FD
Point Format,Y
Horizontal Units,Hz
Horizontal Scale,2.8e+07
,
Sample Interval,373333
Record Length,751
Gating,0.133155792277% to 100.0%
Probe Attenuation,1
Vertical Units,dBm
Vertical Offset,0
Vertical Scale,10
Vertical Position,0
Center Frequency,1.4e+08
Span,2.8e+08
Reference Level,-15
Label,
FREQUENCY,FD NORM
0.000000000e+00,-70.736
3.733333333e+05,-78.9291
7.466666667e+05,-74.2216
1.120000000e+06,-74.3012
1.493333333e+06,-70.3914
1.866666667e+06,-69.2798
2.240000000e+06,-73.141
2.613333333e+06,-67.6929
2.986666667e+06,-69.7114
3.360000000e+06,-62.319
3.733333333e+06,-64.7598
4.106666667e+06,-66.1292
4.480000000e+06,-64.8863
4.853333333e+06,-73.306
5.226666667e+06,-69.0723
5.600000000e+06,-71.0131
5.973333333e+06,-73.7189
6.346666667e+06,-73.2672
6.720000000e+06,-71.0465
7.093333333e+06,-70.7948
7.466666667e+06,-69.3353
7.840000000e+06,-67.0122
8.213333333e+06,-64.9699
8.586666667e+06,-71.6788
8.960000000e+06,-73.669
9.333333333e+06,-69.8262
9.706666667e+06,-72.0022
1.008000000e+07,-73.7801
1.045333333e+07,-68.6797
1.082666667e+07,-67.0929
1.120000000e+07,-66.4778
1.157333333e+07,-68.6519
1.194666667e+07,-67.9885
1.232000000e+07,-73.4727
1.269333333e+07,-66.7201
1.306666667e+07,-66.1542
1.344000000e+07,-63.6185
1.381333333e+07,-68.4996
1.418666667e+07,-71.4015
1.456000000e+07,-77.7212
1.493333333e+07,-70.3504
1.530666667e+07,-67.3452
1.568000000e+07,-71.4654
1.605333333e+07,-63.2693
1.642666667e+07,-69.5834
1.680000000e+07,-67.3545
1.717333333e+07,-64.7715
1.754666667e+07,-67.8953
1.792000000e+07,-69.0846
1.829333333e+07,-67.8967
1.866666667e+07,-65.2923
1.904000000e+07,-61.2503
1.941333333e+07,-62.1005
1.978666667e+07,-69.4104
2.016000000e+07,-69.9555
2.053333333e+07,-68.8847
2.090666667e+07,-67.1529
2.128000000e+07,-64.6603
2.165333333e+07,-64.1556
2.202666667e+07,-67.3702
2.240000000e+07,-70.2225
2.277333333e+07,-66.6684
2.314666667e+07,-66.5759
2.352000000e+07,-66.6987
2.389333333e+07,-67.9684
2.426666667e+07,-63.1572
2.464000000e+07,-58.941
2.501333333e+07,-52.8064
2.538666667e+07,-57.6643
2.576000000e+07,-67.5169
2.613333333e+07,-65.8488
2.650666667e+07,-67.3315
2.688000000e+07,-69.3658
2.725333333e+07,-60.2958
2.762666667e+07,-65.8401
2.800000000e+07,-69.8305
2.837333333e+07,-71.0219
2.874666667e+07,-69.5647
2.912000000e+07,-74.5151
2.949333333e+07,-67.6675
2.986666667e+07,-59.7575
3.024000000e+07,-61.4785
3.061333333e+07,-72.6553
3.098666667e+07,-74.3746
3.136000000e+07,-79.8105
3.173333333e+07,-73.8855
3.210666667e+07,-71.0635
3.248000000e+07,-61.9572
3.285333333e+07,-61.6765
3.322666667e+07,-70.4385
3.360000000e+07,-80.7904
3.397333333e+07,-80.7127
3.434666667e+07,-78.0208
3.472000000e+07,-81.8674
3.509333333e+07,-61.0541
3.546666667e+07,-58.3233
3.584000000e+07,-59.9118
3.621333333e+07,-61.3193
3.658666667e+07,-69.1207
3.696000000e+07,-71.8775
3.733333333e+07,-73.5326
3.770666667e+07,-64.4609
3.808000000e+07,-60.4171
3.845333333e+07,-67.8286
3.882666667e+07,-77.2842
3.920000000e+07,-76.5274
3.957333333e+07,-71.3387
3.994666667e+07,-70.4845
4.032000000e+07,-64.0681
4.069333333e+07,-58.193
4.106666667e+07,-62.7784
4.144000000e+07,-64.6152
4.181333333e+07,-71.4468
4.218666667e+07,-71.8326
4.256000000e+07,-77.1164
4.293333333e+07,-68.3924
4.330666667e+07,-61.1723
4.368000000e+07,-60.2457
4.405333333e+07,-60.4368
4.442666667e+07,-72.0266
4.480000000e+07,-74.3649
4.517333333e+07,-71.5322
4.554666667e+07,-68.4696
4.592000000e+07,-59.8671
4.629333333e+07,-58.8691
4.666666667e+07,-57.6274
4.704000000e+07,-64.5069
4.741333333e+07,-68.8406
4.778666667e+07,-74.031
4.816000000e+07,-71.377
4.853333333e+07,-67.9985
4.890666667e+07,-68.1467
4.928000000e+07,-60.3751
4.965333333e+07,-67.0049
5.002666667e+07,-71.7991
5.040000000e+07,-72.0484
5.077333333e+07,-71.3603
5.114666667e+07,-65.7348
5.152000000e+07,-63.107
5.189333333e+07,-55.5605
5.226666667e+07,-60.2003
5.264000000e+07,-71.2124
5.301333333e+07,-76.1747
5.338666667e+07,-73.2825
5.376000000e+07,-70.2432
5.413333333e+07,-66.8462
5.450666667e+07,-56.8364
5.488000000e+07,-59.0344
5.525333333e+07,-73.2766
5.562666667e+07,-72.8764
5.600000000e+07,-77.1583
5.637333333e+07,-70.6684
5.674666667e+07,-72.3611
5.712000000e+07,-54.1264
5.749333333e+07,-53.8936
5.786666667e+07,-71.5144
5.824000000e+07,-70.1668
5.861333333e+07,-72.443
5.898666667e+07,-72.4089
5.936000000e+07,-69.7568
5.973333333e+07,-36.8211
6.010666667e+07,-34.5229
6.048000000e+07,-53.6979
6.085333333e+07,-71.1805
6.122666667e+07,-76.281
6.160000000e+07,-75.6145
6.197333333e+07,-70.9926
6.234666667e+07,-56.1451
6.272000000e+07,-52.0332
6.309333333e+07,-66.8584
6.346666667e+07,-72.5508
6.384000000e+07,-71.2271
6.421333333e+07,-69.0226
6.458666667e+07,-74.9033
6.496000000e+07,-62.573
6.533333333e+07,-54.1111
6.570666667e+07,-61.0433
6.608000000e+07,-66.004
6.645333333e+07,-73.2882
6.682666667e+07,-70.0128
6.720000000e+07,-70.2456
6.757333333e+07,-66.7313
6.794666667e+07,-56.9436
6.832000000e+07,-59.0843
6.869333333e+07,-62.7367
6.906666667e+07,-62.2531
6.944000000e+07,-72.6651
6.981333333e+07,-74.6141
7.018666667e+07,-68.6332
7.056000000e+07,-59.3356
7.093333333e+07,-59.1251
7.130666667e+07,-59.7064
7.168000000e+07,-63.7396
7.205333333e+07,-65.0998
7.242666667e+07,-69.1801
7.280000000e+07,-70.1013
7.317333333e+07,-63.7335
7.354666667e+07,-58.9417
7.392000000e+07,-59.0464
7.429333333e+07,-62.2734
7.466666667e+07,-71.3717
7.504000000e+07,-67.3493
7.541333333e+07,-71.507
7.578666667e+07,-65.216
7.616000000e+07,-58.016
7.653333333e+07,-59.4252
7.690666667e+07,-64.9157
7.728000000e+07,-71.7613
7.765333333e+07,-82.1767
7.802666667e+07,-67.9092
7.840000000e+07,-64.0377
7.877333333e+07,-60.1398
7.914666667e+07,-56.1905
7.952000000e+07,-58.7003
7.989333333e+07,-64.1363
8.026666667e+07,-66.7745
8.064000000e+07,-68.264
8.101333333e+07,-65.7164
8.138666667e+07,-62.4187
8.176000000e+07,-55.2065
8.213333333e+07,-56.0166
8.250666667e+07,-65.2507
8.288000000e+07,-74.696
8.325333333e+07,-68.8145
8.362666667e+07,-60.9463
8.400000000e+07,-52.6244
8.437333333e+07,-54.8848
8.474666667e+07,-53.2168
8.512000000e+07,-66.426
8.549333333e+07,-76.1243
8.586666667e+07,-76.6697
8.624000000e+07,-77.8583
8.661333333e+07,-67.4878
8.698666667e+07,-61.6609
8.736000000e+07,-54.6778
8.773333333e+07,-65.5576
8.810666667e+07,-80.3716
8.848000000e+07,-75.5647
8.885333333e+07,-73.8627
8.922666667e+07,-72.3783
8.960000000e+07,-61.5203
8.997333333e+07,-54.1014
9.034666667e+07,-60.335
9.072000000e+07,-69.5335
9.109333333e+07,-73.8308
9.146666667e+07,-74.6261
9.184000000e+07,-71.7421
9.221333333e+07,-73.5817
9.258666667e+07,-54.4921
9.296000000e+07,-56.9982
9.333333333e+07,-66.9803
9.370666667e+07,-71.8062
9.408000000e+07,-69.5262
9.445333333e+07,-66.8775
9.482666667e+07,-68.7304
9.520000000e+07,-52.6661
9.557333333e+07,-52.8223
9.594666667e+07,-51.3258
9.632000000e+07,-53.2486
9.669333333e+07,-65.146
9.706666667e+07,-67.4655
9.744000000e+07,-63.7026
9.781333333e+07,-56.7903
9.818666667e+07,-54.9316
9.856000000e+07,-62.1505
9.893333333e+07,-66.5003
9.930666667e+07,-70.6033
9.968000000e+07,-69.8714
1.000533333e+08,-74.8012
1.004266667e+08,-58.5691
1.008000000e+08,-54.4125
1.011733333e+08,-58.3729
1.015466667e+08,-62.0837
1.019200000e+08,-64.1974
1.022933333e+08,-68.2116
1.026666667e+08,-66.9928
1.030400000e+08,-62.7931
1.034133333e+08,-57.4216
1.037866667e+08,-58.8523
1.041600000e+08,-62.5475
1.045333333e+08,-73.7401
1.049066667e+08,-75.5092
1.052800000e+08,-67.8656
1.056533333e+08,-65.4497
1.060266667e+08,-55.885
1.064000000e+08,-54.3509
1.067733333e+08,-54.9172
1.071466667e+08,-64.1928
1.075200000e+08,-66.0566
1.078933333e+08,-54.4613
1.082666667e+08,-57.6137
1.086400000e+08,-62.5985
1.090133333e+08,-56.4063
1.093866667e+08,-55.1607
1.097600000e+08,-64.6644
1.101333333e+08,-71.2656
1.105066667e+08,-64.5841
1.108800000e+08,-67.677
1.112533333e+08,-64.0328
1.116266667e+08,-54.3663
1.120000000e+08,-50.0753
1.123733333e+08,-58.9333
1.127466667e+08,-66.4439
1.131200000e+08,-69.4791
1.134933333e+08,-68.9324
1.138666667e+08,-67.0708
1.142400000e+08,-60.9056
1.146133333e+08,-52.6599
1.149866667e+08,-59.9279
1.153600000e+08,-67.9296
1.157333333e+08,-76.0912
1.161066667e+08,-77.0186
1.164800000e+08,-70.461
1.168533333e+08,-66.0934
1.172266667e+08,-50.7251
1.176000000e+08,-53.8194
1.179733333e+08,-68.0462
1.183466667e+08,-79.88
1.187200000e+08,-75.1921
1.190933333e+08,-74.2092
1.194666667e+08,-62.4365
1.198400000e+08,-36.4989
1.202133333e+08,-37.3297
1.205866667e+08,-66.5392
1.209600000e+08,-72.6594
1.213333333e+08,-75.2036
1.217066667e+08,-76.9328
1.220800000e+08,-69.4053
1.224533333e+08,-51.1872
1.228266667e+08,-49.4962
1.232000000e+08,-66.962
1.235733333e+08,-67.9633
1.239466667e+08,-70.3056
1.243200000e+08,-71.3515
1.246933333e+08,-67.4538
1.250666667e+08,-56.8081
1.254400000e+08,-52.0334
1.258133333e+08,-59.9303
1.261866667e+08,-66.3173
1.265600000e+08,-63.4269
1.269333333e+08,-65.8845
1.273066667e+08,-67.0313
1.276800000e+08,-59.0698
1.280533333e+08,-50.3469
1.284266667e+08,-56.5228
1.288000000e+08,-60.2881
1.291733333e+08,-65.4515
1.295466667e+08,-63.6996
1.299200000e+08,-62.2976
1.302933333e+08,-60.2124
1.306666667e+08,-53.2537
1.310400000e+08,-55.8865
1.314133333e+08,-59.7004
1.317866667e+08,-51.7017
1.321600000e+08,-51.45
1.325333333e+08,-69.6317
1.329066667e+08,-63.1548
1.332800000e+08,-51.9679
1.336533333e+08,-52.5723
1.340266667e+08,-53.2926
1.344000000e+08,-59.6384
1.347733333e+08,-62.4205
1.351466667e+08,-63.1509
1.355200000e+08,-61.5221
1.358933333e+08,-57.7136
1.362666667e+08,-56.1251
1.366400000e+08,-53.838
1.370133333e+08,-61.8485
1.373866667e+08,-67.6689
1.377600000e+08,-71.4408
1.381333333e+08,-64.2448
1.385066667e+08,-58.2809
1.388800000e+08,-56.0701
1.392533333e+08,-51.0228
1.396266667e+08,-57.042
1.400000000e+08,-62.8005
1.403733333e+08,-61.8126
1.407466667e+08,-62.0811
1.411200000e+08,-62.7755
1.414933333e+08,-60.8563
1.418666667e+08,-51.5242
1.422400000e+08,-54.5911
1.426133333e+08,-66.2623
1.429866667e+08,-76.48
1.433600000e+08,-71.2712
1.437333333e+08,-66.2193
1.441066667e+08,-60.0141
1.444800000e+08,-49.2094
1.448533333e+08,-50.5634
1.452266667e+08,-64.9274
1.456000000e+08,-65.3066
1.459733333e+08,-71.2128
1.463466667e+08,-71.6672
1.467200000e+08,-70.2108
1.470933333e+08,-52.0531
1.474666667e+08,-51.7417
1.478400000e+08,-66.357
1.482133333e+08,-65.1391
1.485866667e+08,-73.2243
1.489600000e+08,-69.0283
1.493333333e+08,-73.4195
1.497066667e+08,-52.0417
1.500800000e+08,-48.4972
1.504533333e+08,-65.9695
1.508266667e+08,-76.8586
1.512000000e+08,-73.5658
1.515733333e+08,-67.0769
1.519466667e+08,-67.9364
1.523200000e+08,-59.4319
1.526933333e+08,-52.0543
1.530666667e+08,-60.6374
1.534400000e+08,-67.0919
1.538133333e+08,-69.1478
1.541866667e+08,-66.9205
1.545600000e+08,-66.572
1.549333333e+08,-62.1681
1.553066667e+08,-48.9192
1.556800000e+08,-51.7193
1.560533333e+08,-48.9015
1.564266667e+08,-62.8711
1.568000000e+08,-68.6695
1.571733333e+08,-66.6548
1.575466667e+08,-59.8398
1.579200000e+08,-50.7726
1.582933333e+08,-51.4412
1.586666667e+08,-60.3138
1.590400000e+08,-64.5742
1.594133333e+08,-69.7763
1.597866667e+08,-60.3519
1.601600000e+08,-61.8131
1.605333333e+08,-51.1925
1.609066667e+08,-49.9182
1.612800000e+08,-55.307
1.616533333e+08,-60.4038
1.620266667e+08,-63.9147
1.624000000e+08,-62.999
1.627733333e+08,-62.6738
1.631466667e+08,-55.897
1.635200000e+08,-53.4466
1.638933333e+08,-55.4426
1.642666667e+08,-61.2039
1.646400000e+08,-62.0197
1.650133333e+08,-62.5691
1.653866667e+08,-63.9699
1.657600000e+08,-57.9185
1.661333333e+08,-52.9969
1.665066667e+08,-50.7275
1.668800000e+08,-54.059
1.672533333e+08,-60.9216
1.676266667e+08,-63.0872
1.680000000e+08,-67.0269
1.683733333e+08,-60.7947
1.687466667e+08,-56.3691
1.691200000e+08,-54.1302
1.694933333e+08,-56.0346
1.698666667e+08,-68.1208
1.702400000e+08,-62.8488
1.706133333e+08,-62.959
1.709866667e+08,-65.3827
1.713600000e+08,-57.5851
1.717333333e+08,-49.0406
1.721066667e+08,-48.4322
1.724800000e+08,-61.4288
1.728533333e+08,-63.991
1.732266667e+08,-63.2337
1.736000000e+08,-64.5364
1.739733333e+08,-62.503
1.743466667e+08,-53.6179
1.747200000e+08,-51.536
1.750933333e+08,-63.9818
1.754666667e+08,-68.0659
1.758400000e+08,-68.0702
1.762133333e+08,-69.1256
1.765866667e+08,-67.0527
1.769600000e+08,-54.6717
1.773333333e+08,-47.0726
1.777066667e+08,-57.3155
1.780800000e+08,-80.9719
1.784533333e+08,-65.5621
1.788266667e+08,-66.8059
1.792000000e+08,-75.6127
1.795733333e+08,-54.0359
1.799466667e+08,-40.4905
1.803200000e+08,-45.8934
1.806933333e+08,-74.2363
1.810666667e+08,-69.0845
1.814400000e+08,-67.5547
1.818133333e+08,-76.5949
1.821866667e+08,-66.9963
1.825600000e+08,-47.5678
1.829333333e+08,-49.4557
1.833066667e+08,-67.5896
1.836800000e+08,-71.0835
1.840533333e+08,-71.1178
1.844266667e+08,-69.9256
1.848000000e+08,-63.9757
1.851733333e+08,-52.2714
1.855466667e+08,-51.5426
1.859200000e+08,-67.0027
1.862933333e+08,-63.6393
1.866666667e+08,-64.0765
1.870400000e+08,-62.5408
1.874133333e+08,-62.5198
1.877866667e+08,-50.5052
1.881600000e+08,-48.3016
1.885333333e+08,-55.4582
1.889066667e+08,-62.5382
1.892800000e+08,-69.723
1.896533333e+08,-71.4023
1.900266667e+08,-64.7055
1.904000000e+08,-59.7245
1.907733333e+08,-53.4711
1.911466667e+08,-59.6874
1.915200000e+08,-62.5851
1.918933333e+08,-51.9361
1.922666667e+08,-50.96
1.926400000e+08,-59.6341
1.930133333e+08,-57.8878
1.933866667e+08,-51.1922
1.937600000e+08,-52.8227
1.941333333e+08,-54.263
1.945066667e+08,-60.4172
1.948800000e+08,-65.7142
1.952533333e+08,-65.384
1.956266667e+08,-62.3253
1.960000000e+08,-54.4542
1.963733333e+08,-55.4015
1.967466667e+08,-57.7557
1.971200000e+08,-64.0161
1.974933333e+08,-63.9406
1.978666667e+08,-62.9949
1.982400000e+08,-62.1092
1.986133333e+08,-54.6236
1.989866667e+08,-51.7148
1.993600000e+08,-49.0598
1.997333333e+08,-58.626
2.001066667e+08,-60.9897
2.004800000e+08,-63.6481
2.008533333e+08,-65.4184
2.012266667e+08,-65.6383
2.016000000e+08,-57.8416
2.019733333e+08,-53.9703
2.023466667e+08,-63.1251
2.027200000e+08,-63.4584
2.030933333e+08,-65.4806
2.034666667e+08,-61.2305
2.038400000e+08,-48.7017
2.042133333e+08,-48.6916
2.045866667e+08,-47.7583
2.049600000e+08,-54.095
2.053333333e+08,-66.7233
2.057066667e+08,-67.4054
2.060800000e+08,-73.0355
2.064533333e+08,-66.869
2.068266667e+08,-67.9587
2.072000000e+08,-52.3131
2.075733333e+08,-54.751
2.079466667e+08,-65.274
2.083200000e+08,-69.2523
2.086933333e+08,-71.786
2.090666667e+08,-64.8033
2.094400000e+08,-62.3621
2.098133333e+08,-46.717
2.101866667e+08,-46.8809
2.105600000e+08,-68.5916
2.109333333e+08,-67.3671
2.113066667e+08,-67.9489
2.116800000e+08,-69.1071
2.120533333e+08,-77.5401
2.124266667e+08,-55.2006
2.128000000e+08,-53.3656
2.131733333e+08,-70.1659
2.135466667e+08,-66.0912
2.139200000e+08,-70.4215
2.142933333e+08,-61.198
2.146666667e+08,-58.7593
2.150400000e+08,-53.5581
2.154133333e+08,-47.2808
2.157866667e+08,-58.0635
2.161600000e+08,-56.9333
2.165333333e+08,-61.406
2.169066667e+08,-63.4516
2.172800000e+08,-72.5722
2.176533333e+08,-61.9726
2.180266667e+08,-54.5855
2.184000000e+08,-60.9954
2.187733333e+08,-66.8225
2.191466667e+08,-63.1838
2.195200000e+08,-61.0438
2.198933333e+08,-60.8437
2.202666667e+08,-57.7787
2.206400000e+08,-48.135
2.210133333e+08,-50.1443
2.213866667e+08,-52.4879
2.217600000e+08,-57.2317
2.221333333e+08,-62.467
2.225066667e+08,-62.5511
2.228800000e+08,-64.3765
2.232533333e+08,-57.3256
2.236266667e+08,-57.1738
2.240000000e+08,-58.3171
2.243733333e+08,-61.9185
2.247466667e+08,-61.1007
2.251200000e+08,-62.2896
2.254933333e+08,-59.5694
2.258666667e+08,-52.4342
2.262400000e+08,-50.6425
2.266133333e+08,-48.9985
2.269866667e+08,-57.1892
2.273600000e+08,-60.0988
2.277333333e+08,-51.9453
2.281066667e+08,-48.8911
2.284800000e+08,-61.7569
2.288533333e+08,-59.3935
2.292266667e+08,-55.842
2.296000000e+08,-62.668
2.299733333e+08,-64.1995
2.303466667e+08,-64.0189
2.307200000e+08,-62.8049
2.310933333e+08,-59.0838
2.314666667e+08,-56.1882
2.318400000e+08,-47.444
2.322133333e+08,-50.6078
2.325866667e+08,-62.3218
2.329600000e+08,-65.3541
2.333333333e+08,-67.7769
2.337066667e+08,-66.171
2.340800000e+08,-66.077
2.344533333e+08,-54.4824
2.348266667e+08,-55.1143
2.352000000e+08,-70.1342
2.355733333e+08,-72.3864
2.359466667e+08,-69.3036
2.363200000e+08,-67.7918
2.366933333e+08,-67.198
2.370666667e+08,-47.7513
2.374400000e+08,-46.2707
2.378133333e+08,-64.1582
2.381866667e+08,-67.588
2.385600000e+08,-72.8451
2.389333333e+08,-81.7601
2.393066667e+08,-77.8107
2.396800000e+08,-54.2852
2.400533333e+08,-48.9137
2.404266667e+08,-51.2952
2.408000000e+08,-68.9006
2.411733333e+08,-69.1231
2.415466667e+08,-77.4574
2.419200000e+08,-69.8284
2.422933333e+08,-56.5936
2.426666667e+08,-46.8092
2.430400000e+08,-53.9432
2.434133333e+08,-69.482
2.437866667e+08,-69.6512
2.441600000e+08,-69.3427
2.445333333e+08,-69.5769
2.449066667e+08,-67.3203
2.452800000e+08,-53.4315
2.456533333e+08,-55.9873
2.460266667e+08,-64.0556
2.464000000e+08,-66.5018
2.467733333e+08,-69.9475
2.471466667e+08,-64.5754
2.475200000e+08,-60.7165
2.478933333e+08,-48.1409
2.482666667e+08,-48.5408
2.486400000e+08,-56.5362
2.490133333e+08,-62.8905
2.493866667e+08,-63.1197
2.497600000e+08,-62.9701
2.501333333e+08,-62.8159
2.505066667e+08,-56.7204
2.508800000e+08,-54.9037
2.512533333e+08,-60.1948
2.516266667e+08,-58.4825
2.520000000e+08,-48.6269
2.523733333e+08,-56.8616
2.527466667e+08,-61.3807
2.531200000e+08,-54.359
2.534933333e+08,-50.1608
2.538666667e+08,-51.5832
2.542400000e+08,-57.4607
2.546133333e+08,-62.6695
2.549866667e+08,-63.6291
2.553600000e+08,-63.2664
2.557333333e+08,-62.1388
2.561066667e+08,-57.7146
2.564800000e+08,-55.0594
2.568533333e+08,-59.0752
2.572266667e+08,-68.018
2.576000000e+08,-66.4483
2.579733333e+08,-64.1493
2.583466667e+08,-61.2292
2.587200000e+08,-54.0186
2.590933333e+08,-49.6027
2.594666667e+08,-50.7284
2.598400000e+08,-60.1818
2.602133333e+08,-61.4922
2.605866667e+08,-64.6399
2.609600000e+08,-65.2505
2.613333333e+08,-63.0766
2.617066667e+08,-53.6862
2.620800000e+08,-52.9329
2.624533333e+08,-68.0209
2.628266667e+08,-65.6225
2.632000000e+08,-66.6696
2.635733333e+08,-64.2506
2.639466667e+08,-57.6475
2.643200000e+08,-51.1053
2.646933333e+08,-47.5734
2.650666667e+08,-57.6514
2.654400000e+08,-63.5381
2.658133333e+08,-61.766
2.661866667e+08,-68.9923
2.665600000e+08,-74.0824
2.669333333e+08,-61.1896
2.673066667e+08,-52.6228
2.676800000e+08,-58.386
2.680533333e+08,-68.7504
2.684266667e+08,-68.5024
2.688000000e+08,-68.4996
2.691733333e+08,-68.0015
2.695466667e+08,-62.3869
2.699200000e+08,-46.9863
2.702933333e+08,-50.926
2.706666667e+08,-71.8325
2.710400000e+08,-72.2775
2.714133333e+08,-71.592
2.717866667e+08,-70.466
2.721600000e+08,-64.5029
2.725333333e+08,-53.7115
2.729066667e+08,-54.5714
2.732800000e+08,-72.7807
2.736533333e+08,-72.3185
2.740266667e+08,-71.454
2.744000000e+08,-70.7778
2.747733333e+08,-69.6606
2.751466667e+08,-50.3709
2.755200000e+08,-48.8937
2.758933333e+08,-46.5701
2.762666667e+08,-48.7921
2.766400000e+08,-70.6026
2.770133333e+08,-67.1305
2.773866667e+08,-68.5899
2.777600000e+08,-61.288
2.781333333e+08,-56.03
2.785066667e+08,-63.1094
2.788800000e+08,-67.0221
2.792533333e+08,-65.9287
2.796266667e+08,-65.0083
2.800000000e+08,-64.3761

