Model,MDO3104
Firmware Version,1.30

Waveform Type,RF_FD
Point Format,Y
Horizontal Units,Hz
Horizontal Scale,2.8e+07
,
Sample Interval,373333
Record Length,751
Gating,0.133155792277% to 100.0%
Probe Attenuation,1
Vertical Units,dBm
Vertical Offset,0
Vertical Scale,10
Vertical Position,0
Center Frequency,1.4e+08
Span,2.8e+08
Reference Level,-15
Label,
FREQUENCY,FD NORM
0.000000000e+00,-64.2043
3.733333333e+05,-76.0764
7.466666667e+05,-77.4075
1.120000000e+06,-76.259
1.493333333e+06,-71.8504
1.866666667e+06,-70.9934
2.240000000e+06,-69.5731
2.613333333e+06,-65.7396
2.986666667e+06,-68.9839
3.360000000e+06,-59.1732
3.733333333e+06,-61.1653
4.106666667e+06,-68.5774
4.480000000e+06,-74.0486
4.853333333e+06,-73.5752
5.226666667e+06,-64.9259
5.600000000e+06,-63.0172
5.973333333e+06,-62.9511
6.346666667e+06,-72.1761
6.720000000e+06,-66.0621
7.093333333e+06,-68.3687
7.466666667e+06,-68.8799
7.840000000e+06,-62.959
8.213333333e+06,-63.3828
8.586666667e+06,-71.6713
8.960000000e+06,-70.4419
9.333333333e+06,-72.1396
9.706666667e+06,-76.2671
1.008000000e+07,-67.9017
1.045333333e+07,-66.2805
1.082666667e+07,-72.9259
1.120000000e+07,-71.8827
1.157333333e+07,-74.6159
1.194666667e+07,-62.7679
1.232000000e+07,-72.7994
1.269333333e+07,-68.8259
1.306666667e+07,-68.05
1.344000000e+07,-73.8481
1.381333333e+07,-70.6956
1.418666667e+07,-73.9833
1.456000000e+07,-75.7914
1.493333333e+07,-69.7025
1.530666667e+07,-76.5133
1.568000000e+07,-72.9015
1.605333333e+07,-73.9247
1.642666667e+07,-65.9061
1.680000000e+07,-64.5582
1.717333333e+07,-61.3753
1.754666667e+07,-58.2835
1.792000000e+07,-57.5429
1.829333333e+07,-61.2122
1.866666667e+07,-65.8129
1.904000000e+07,-62.7121
1.941333333e+07,-61.7615
1.978666667e+07,-69.5627
2.016000000e+07,-73.3409
2.053333333e+07,-75.0904
2.090666667e+07,-76.6721
2.128000000e+07,-78.3628
2.165333333e+07,-63.7815
2.202666667e+07,-62.3452
2.240000000e+07,-66.1769
2.277333333e+07,-66.04
2.314666667e+07,-70.3564
2.352000000e+07,-62.2119
2.389333333e+07,-67.0555
2.426666667e+07,-61.5142
2.464000000e+07,-59.8213
2.501333333e+07,-54.4823
2.538666667e+07,-69.4788
2.576000000e+07,-69.3295
2.613333333e+07,-67.465
2.650666667e+07,-66.6438
2.688000000e+07,-68.5412
2.725333333e+07,-62.6801
2.762666667e+07,-66.2136
2.800000000e+07,-66.5006
2.837333333e+07,-71.6122
2.874666667e+07,-64.4298
2.912000000e+07,-65.0441
2.949333333e+07,-61.1391
2.986666667e+07,-57.3882
3.024000000e+07,-56.1503
3.061333333e+07,-62.7168
3.098666667e+07,-66.279
3.136000000e+07,-75.1221
3.173333333e+07,-68.6833
3.210666667e+07,-68.1928
3.248000000e+07,-59.2157
3.285333333e+07,-58.8371
3.322666667e+07,-74.9981
3.360000000e+07,-76.0132
3.397333333e+07,-77.5787
3.434666667e+07,-78.3849
3.472000000e+07,-75.3626
3.509333333e+07,-60.4325
3.546666667e+07,-57.1163
3.584000000e+07,-50.1922
3.621333333e+07,-51.1582
3.658666667e+07,-78.0556
3.696000000e+07,-76.9542
3.733333333e+07,-72.1981
3.770666667e+07,-61.5335
3.808000000e+07,-58.0105
3.845333333e+07,-67.5231
3.882666667e+07,-75.3609
3.920000000e+07,-74.0431
3.957333333e+07,-70.0388
3.994666667e+07,-69.4294
4.032000000e+07,-66.3823
4.069333333e+07,-59.3927
4.106666667e+07,-61.7401
4.144000000e+07,-61.995
4.181333333e+07,-56.8804
4.218666667e+07,-56.7059
4.256000000e+07,-59.5164
4.293333333e+07,-64.1146
4.330666667e+07,-59.1186
4.368000000e+07,-60.9424
4.405333333e+07,-62.8885
4.442666667e+07,-69.7673
4.480000000e+07,-72.294
4.517333333e+07,-77.3183
4.554666667e+07,-69.4441
4.592000000e+07,-62.0424
4.629333333e+07,-59.7738
4.666666667e+07,-57.102
4.704000000e+07,-64.3894
4.741333333e+07,-63.8823
4.778666667e+07,-37.6416
4.816000000e+07,-37.0081
4.853333333e+07,-66.618
4.890666667e+07,-63.633
4.928000000e+07,-55.9902
4.965333333e+07,-59.057
5.002666667e+07,-60.0407
5.040000000e+07,-61.434
5.077333333e+07,-63.213
5.114666667e+07,-63.1469
5.152000000e+07,-62.4927
5.189333333e+07,-51.6273
5.226666667e+07,-54.3509
5.264000000e+07,-60.7316
5.301333333e+07,-61.0439
5.338666667e+07,-57.9539
5.376000000e+07,-53.4643
5.413333333e+07,-51.8116
5.450666667e+07,-55.3132
5.488000000e+07,-56.3595
5.525333333e+07,-60.4763
5.562666667e+07,-61.0662
5.600000000e+07,-64.4109
5.637333333e+07,-64.7559
5.674666667e+07,-66.8944
5.712000000e+07,-51.6131
5.749333333e+07,-51.3974
5.786666667e+07,-61.4832
5.824000000e+07,-63.8467
5.861333333e+07,-61.6774
5.898666667e+07,-61.5084
5.936000000e+07,-61.2742
5.973333333e+07,-36.5439
6.010666667e+07,-34.2435
6.048000000e+07,-54.9979
6.085333333e+07,-62.0683
6.122666667e+07,-59.9186
6.160000000e+07,-59.7658
6.197333333e+07,-59.8458
6.234666667e+07,-55.902
6.272000000e+07,-51.5062
6.309333333e+07,-62.5788
6.346666667e+07,-59.4468
6.384000000e+07,-58.4899
6.421333333e+07,-60.7966
6.458666667e+07,-59.5077
6.496000000e+07,-57.9515
6.533333333e+07,-52.0742
6.570666667e+07,-48.4486
6.608000000e+07,-51.1194
6.645333333e+07,-52.341
6.682666667e+07,-60.6158
6.720000000e+07,-69.7219
6.757333333e+07,-67.6539
6.794666667e+07,-54.8202
6.832000000e+07,-56.9272
6.869333333e+07,-67.4003
6.906666667e+07,-71.8207
6.944000000e+07,-74.1266
6.981333333e+07,-71.2164
7.018666667e+07,-67.2617
7.056000000e+07,-57.5575
7.093333333e+07,-56.8419
7.130666667e+07,-63.8817
7.168000000e+07,-45.4161
7.205333333e+07,-40.3517
7.242666667e+07,-52.6616
7.280000000e+07,-77.0727
7.317333333e+07,-69.5934
7.354666667e+07,-60.9331
7.392000000e+07,-56.2089
7.429333333e+07,-58.4397
7.466666667e+07,-62.7948
7.504000000e+07,-68.761
7.541333333e+07,-64.6561
7.578666667e+07,-62.6955
7.616000000e+07,-59.5743
7.653333333e+07,-54.5299
7.690666667e+07,-57.844
7.728000000e+07,-57.0174
7.765333333e+07,-51.6559
7.802666667e+07,-53.1586
7.840000000e+07,-52.6009
7.877333333e+07,-55.1109
7.914666667e+07,-58.989
7.952000000e+07,-61.1378
7.989333333e+07,-63.7856
8.026666667e+07,-64.2309
8.064000000e+07,-62.5941
8.101333333e+07,-62.9105
8.138666667e+07,-60.8198
8.176000000e+07,-55.8825
8.213333333e+07,-56.6027
8.250666667e+07,-67.4647
8.288000000e+07,-65.7203
8.325333333e+07,-62.0773
8.362666667e+07,-49.5968
8.400000000e+07,-40.6047
8.437333333e+07,-50.0933
8.474666667e+07,-54.8679
8.512000000e+07,-70.7807
8.549333333e+07,-72.0699
8.586666667e+07,-66.5401
8.624000000e+07,-61.8542
8.661333333e+07,-62.1472
8.698666667e+07,-60.3237
8.736000000e+07,-54.5595
8.773333333e+07,-66.4891
8.810666667e+07,-71.8893
8.848000000e+07,-71.2582
8.885333333e+07,-68.9274
8.922666667e+07,-63.094
8.960000000e+07,-56.7571
8.997333333e+07,-56.2175
9.034666667e+07,-61.7565
9.072000000e+07,-67.2873
9.109333333e+07,-67.0892
9.146666667e+07,-66.7558
9.184000000e+07,-65.7769
9.221333333e+07,-63.1176
9.258666667e+07,-53.9172
9.296000000e+07,-56.1957
9.333333333e+07,-73.983
9.370666667e+07,-66.1183
9.408000000e+07,-64.6231
9.445333333e+07,-69.8288
9.482666667e+07,-65.9213
9.520000000e+07,-50.8981
9.557333333e+07,-51.1086
9.594666667e+07,-42.2355
9.632000000e+07,-45.928
9.669333333e+07,-69.6395
9.706666667e+07,-64.608
9.744000000e+07,-64.2365
9.781333333e+07,-55.3481
9.818666667e+07,-54.084
9.856000000e+07,-68.5129
9.893333333e+07,-69.2612
9.930666667e+07,-70.2026
9.968000000e+07,-66.6075
1.000533333e+08,-62.1704
1.004266667e+08,-55.9024
1.008000000e+08,-52.0445
1.011733333e+08,-62.6234
1.015466667e+08,-57.499
1.019200000e+08,-57.0929
1.022933333e+08,-61.9529
1.026666667e+08,-68.467
1.030400000e+08,-61.9097
1.034133333e+08,-57.2721
1.037866667e+08,-59.6291
1.041600000e+08,-61.5653
1.045333333e+08,-66.5412
1.049066667e+08,-66.9415
1.052800000e+08,-68.1066
1.056533333e+08,-68.116
1.060266667e+08,-57.5669
1.064000000e+08,-53.2909
1.067733333e+08,-54.6808
1.071466667e+08,-65.7772
1.075200000e+08,-64.7744
1.078933333e+08,-42.3318
1.082666667e+08,-44.4143
1.086400000e+08,-62.7498
1.090133333e+08,-56.0563
1.093866667e+08,-55.2683
1.097600000e+08,-64.4276
1.101333333e+08,-66.4362
1.105066667e+08,-76.8225
1.108800000e+08,-68.9039
1.112533333e+08,-64.5465
1.116266667e+08,-54.4406
1.120000000e+08,-50.2076
1.123733333e+08,-59.2927
1.127466667e+08,-68.7451
1.131200000e+08,-68.6872
1.134933333e+08,-70.7353
1.138666667e+08,-65.1427
1.142400000e+08,-60.1641
1.146133333e+08,-53.1009
1.149866667e+08,-59.0036
1.153600000e+08,-65.9366
1.157333333e+08,-66.5523
1.161066667e+08,-66.496
1.164800000e+08,-64.7198
1.168533333e+08,-64.6315
1.172266667e+08,-50.2845
1.176000000e+08,-53.0973
1.179733333e+08,-76.083
1.183466667e+08,-72.1823
1.187200000e+08,-70.9554
1.190933333e+08,-71.6165
1.194666667e+08,-63.2845
1.198400000e+08,-34.6212
1.202133333e+08,-35.4293
1.205866667e+08,-66.6551
1.209600000e+08,-65.2273
1.213333333e+08,-69.2665
1.217066667e+08,-67.8508
1.220800000e+08,-67.7568
1.224533333e+08,-51.1731
1.228266667e+08,-49.702
1.232000000e+08,-67.2183
1.235733333e+08,-68.9006
1.239466667e+08,-68.9314
1.243200000e+08,-74.6247
1.246933333e+08,-65.1853
1.250666667e+08,-58.2845
1.254400000e+08,-52.41
1.258133333e+08,-61.854
1.261866667e+08,-54.8978
1.265600000e+08,-56.3005
1.269333333e+08,-61.9955
1.273066667e+08,-62.4325
1.276800000e+08,-58.1285
1.280533333e+08,-51.2162
1.284266667e+08,-56.5741
1.288000000e+08,-58.4287
1.291733333e+08,-62.2213
1.295466667e+08,-63.1851
1.299200000e+08,-63.0678
1.302933333e+08,-58.1628
1.306666667e+08,-53.3363
1.310400000e+08,-56.4153
1.314133333e+08,-62.6284
1.317866667e+08,-44.4111
1.321600000e+08,-43.6206
1.325333333e+08,-64.2122
1.329066667e+08,-60.7656
1.332800000e+08,-51.5241
1.336533333e+08,-52.0614
1.340266667e+08,-54.8078
1.344000000e+08,-67.9745
1.347733333e+08,-67.3164
1.351466667e+08,-65.755
1.355200000e+08,-62.5776
1.358933333e+08,-54.6211
1.362666667e+08,-54.1352
1.366400000e+08,-55.0233
1.370133333e+08,-63.3696
1.373866667e+08,-65.054
1.377600000e+08,-63.2846
1.381333333e+08,-68.3355
1.385066667e+08,-59.7502
1.388800000e+08,-57.2822
1.392533333e+08,-50.2427
1.396266667e+08,-55.7611
1.400000000e+08,-62.6577
1.403733333e+08,-62.525
1.407466667e+08,-64.4777
1.411200000e+08,-64.0348
1.414933333e+08,-61.2516
1.418666667e+08,-52.0809
1.422400000e+08,-55.3021
1.426133333e+08,-68.1223
1.429866667e+08,-69.9847
1.433600000e+08,-65.733
1.437333333e+08,-45.4422
1.441066667e+08,-42.6727
1.444800000e+08,-48.3972
1.448533333e+08,-49.2447
1.452266667e+08,-61.7003
1.456000000e+08,-64.2044
1.459733333e+08,-63.4066
1.463466667e+08,-65.2099
1.467200000e+08,-67.8058
1.470933333e+08,-52.8392
1.474666667e+08,-52.2936
1.478400000e+08,-67.6397
1.482133333e+08,-71.1531
1.485866667e+08,-70.2791
1.489600000e+08,-68.6208
1.493333333e+08,-69.1008
1.497066667e+08,-51.4841
1.500800000e+08,-49.1351
1.504533333e+08,-62.6612
1.508266667e+08,-72.873
1.512000000e+08,-67.9741
1.515733333e+08,-65.3497
1.519466667e+08,-68.7057
1.523200000e+08,-58.4552
1.526933333e+08,-51.7733
1.530666667e+08,-61.3161
1.534400000e+08,-77.2576
1.538133333e+08,-69.3535
1.541866667e+08,-65.2518
1.545600000e+08,-68.0743
1.549333333e+08,-59.9885
1.553066667e+08,-49.5272
1.556800000e+08,-47.3305
1.560533333e+08,-41.3083
1.564266667e+08,-53.423
1.568000000e+08,-62.415
1.571733333e+08,-66.0624
1.575466667e+08,-62.5712
1.579200000e+08,-54.5206
1.582933333e+08,-56.1257
1.586666667e+08,-56.6029
1.590400000e+08,-61.3109
1.594133333e+08,-61.9852
1.597866667e+08,-62.2278
1.601600000e+08,-64.1664
1.605333333e+08,-51.4792
1.609066667e+08,-50.4446
1.612800000e+08,-53.2313
1.616533333e+08,-58.635
1.620266667e+08,-57.478
1.624000000e+08,-58.4311
1.627733333e+08,-60.236
1.631466667e+08,-56.9302
1.635200000e+08,-54.2854
1.638933333e+08,-55.8923
1.642666667e+08,-60.7316
1.646400000e+08,-66.2377
1.650133333e+08,-68.7384
1.653866667e+08,-63.2139
1.657600000e+08,-58.7399
1.661333333e+08,-52.9279
1.665066667e+08,-50.693
1.668800000e+08,-54.9122
1.672533333e+08,-63.3485
1.676266667e+08,-54.6511
1.680000000e+08,-46.8456
1.683733333e+08,-56.8836
1.687466667e+08,-57.9141
1.691200000e+08,-55.6333
1.694933333e+08,-56.7359
1.698666667e+08,-69.7665
1.702400000e+08,-67.1004
1.706133333e+08,-59.1146
1.709866667e+08,-59.1044
1.713600000e+08,-56.4903
1.717333333e+08,-49.3285
1.721066667e+08,-48.6655
1.724800000e+08,-59.7887
1.728533333e+08,-69.4238
1.732266667e+08,-65.0158
1.736000000e+08,-64.9209
1.739733333e+08,-64.0881
1.743466667e+08,-56.6607
1.747200000e+08,-52.8154
1.750933333e+08,-62.2828
1.754666667e+08,-70.4449
1.758400000e+08,-76.0854
1.762133333e+08,-69.1276
1.765866667e+08,-67.9827
1.769600000e+08,-53.031
1.773333333e+08,-47.1811
1.777066667e+08,-57.9768
1.780800000e+08,-62.6566
1.784533333e+08,-68.9628
1.788266667e+08,-68.0356
1.792000000e+08,-66.3297
1.795733333e+08,-52.0355
1.799466667e+08,-38.8373
1.803200000e+08,-43.927
1.806933333e+08,-69.855
1.810666667e+08,-72.9126
1.814400000e+08,-72.3905
1.818133333e+08,-65.0441
1.821866667e+08,-59.0668
1.825600000e+08,-47.2558
1.829333333e+08,-49.1735
1.833066667e+08,-63.3393
1.836800000e+08,-68.7568
1.840533333e+08,-66.6035
1.844266667e+08,-67.7126
1.848000000e+08,-64.2109
1.851733333e+08,-52.1064
1.855466667e+08,-51.4036
1.859200000e+08,-62.5268
1.862933333e+08,-64.6415
1.866666667e+08,-69.3698
1.870400000e+08,-63.4996
1.874133333e+08,-62.8204
1.877866667e+08,-50.6909
1.881600000e+08,-48.3842
1.885333333e+08,-57.498
1.889066667e+08,-60.8124
1.892800000e+08,-63.6393
1.896533333e+08,-66.0665
1.900266667e+08,-64.9924
1.904000000e+08,-58.1794
1.907733333e+08,-53.7442
1.911466667e+08,-56.8567
1.915200000e+08,-57.9414
1.918933333e+08,-50.8136
1.922666667e+08,-58.7252
1.926400000e+08,-60.2835
1.930133333e+08,-57.8617
1.933866667e+08,-50.4996
1.937600000e+08,-51.4838
1.941333333e+08,-53.6069
1.945066667e+08,-57.4309
1.948800000e+08,-61.6008
1.952533333e+08,-63.002
1.956266667e+08,-65.2869
1.960000000e+08,-57.119
1.963733333e+08,-55.5627
1.967466667e+08,-55.9489
1.971200000e+08,-63.0597
1.974933333e+08,-65.0388
1.978666667e+08,-61.3395
1.982400000e+08,-58.1674
1.986133333e+08,-54.5246
1.989866667e+08,-51.8642
1.993600000e+08,-49.5311
1.997333333e+08,-56.2954
2.001066667e+08,-60.8362
2.004800000e+08,-63.9304
2.008533333e+08,-65.7478
2.012266667e+08,-61.0416
2.016000000e+08,-60.8813
2.019733333e+08,-55.0699
2.023466667e+08,-65.8535
2.027200000e+08,-68.2095
2.030933333e+08,-67.9738
2.034666667e+08,-65.2045
2.038400000e+08,-43.2594
2.042133333e+08,-44.773
2.045866667e+08,-47.9188
2.049600000e+08,-54.4017
2.053333333e+08,-68.3538
2.057066667e+08,-70.8559
2.060800000e+08,-68.3045
2.064533333e+08,-65.6535
2.068266667e+08,-65.6343
2.072000000e+08,-52.921
2.075733333e+08,-55.2554
2.079466667e+08,-66.4686
2.083200000e+08,-65.1306
2.086933333e+08,-67.8619
2.090666667e+08,-66.0959
2.094400000e+08,-68.2405
2.098133333e+08,-46.2056
2.101866667e+08,-46.1779
2.105600000e+08,-68.6042
2.109333333e+08,-71.5205
2.113066667e+08,-69.5264
2.116800000e+08,-64.9336
2.120533333e+08,-65.234
2.124266667e+08,-54.2236
2.128000000e+08,-52.3143
2.131733333e+08,-63.8909
2.135466667e+08,-62.7496
2.139200000e+08,-63.3196
2.142933333e+08,-64.3171
2.146666667e+08,-65.3544
2.150400000e+08,-51.0359
2.154133333e+08,-46.0815
2.157866667e+08,-46.1752
2.161600000e+08,-46.1311
2.165333333e+08,-65.6766
2.169066667e+08,-65.3068
2.172800000e+08,-64.667
2.176533333e+08,-66.668
2.180266667e+08,-54.0241
2.184000000e+08,-59.5297
2.187733333e+08,-64.8286
2.191466667e+08,-70.2212
2.195200000e+08,-65.9724
2.198933333e+08,-62.3512
2.202666667e+08,-58.4955
2.206400000e+08,-48.4337
2.210133333e+08,-50.7563
2.213866667e+08,-55.1121
2.217600000e+08,-58.7394
2.221333333e+08,-65.7742
2.225066667e+08,-62.7067
2.228800000e+08,-62.4847
2.232533333e+08,-53.9783
2.236266667e+08,-54.43
2.240000000e+08,-61.601
2.243733333e+08,-64.829
2.247466667e+08,-64.6205
2.251200000e+08,-62.6715
2.254933333e+08,-60.0714
2.258666667e+08,-54.0109
2.262400000e+08,-51.9869
2.266133333e+08,-49.5364
2.269866667e+08,-55.7721
2.273600000e+08,-59.1286
2.277333333e+08,-44.9265
2.281066667e+08,-42.644
2.284800000e+08,-55.1442
2.288533333e+08,-58.1502
2.292266667e+08,-53.7196
2.296000000e+08,-57.4609
2.299733333e+08,-59.8202
2.303466667e+08,-59.6675
2.307200000e+08,-63.1011
2.310933333e+08,-62.0491
2.314666667e+08,-56.7403
2.318400000e+08,-47.0389
2.322133333e+08,-49.8863
2.325866667e+08,-61.1443
2.329600000e+08,-64.8211
2.333333333e+08,-67.754
2.337066667e+08,-68.6969
2.340800000e+08,-63.8657
2.344533333e+08,-53.393
2.348266667e+08,-54.2685
2.352000000e+08,-68.2988
2.355733333e+08,-71.1562
2.359466667e+08,-67.6436
2.363200000e+08,-70.3704
2.366933333e+08,-61.7749
2.370666667e+08,-47.7937
2.374400000e+08,-46.3098
2.378133333e+08,-67.5284
2.381866667e+08,-74.505
2.385600000e+08,-72.9459
2.389333333e+08,-69.366
2.393066667e+08,-67.0763
2.396800000e+08,-57.9843
2.400533333e+08,-47.616
2.404266667e+08,-50.1677
2.408000000e+08,-72.0759
2.411733333e+08,-65.6406
2.415466667e+08,-68.4335
2.419200000e+08,-64.9627
2.422933333e+08,-57.1131
2.426666667e+08,-46.9863
2.430400000e+08,-53.7309
2.434133333e+08,-66.0504
2.437866667e+08,-66.4388
2.441600000e+08,-66.3567
2.445333333e+08,-65.0229
2.449066667e+08,-64.6024
2.452800000e+08,-53.6198
2.456533333e+08,-57.1097
2.460266667e+08,-65.4657
2.464000000e+08,-66.7941
2.467733333e+08,-67.7312
2.471466667e+08,-61.0246
2.475200000e+08,-58.3538
2.478933333e+08,-47.9127
2.482666667e+08,-48.414
2.486400000e+08,-55.8057
2.490133333e+08,-60.9769
2.493866667e+08,-64.5259
2.497600000e+08,-62.5939
2.501333333e+08,-61.6729
2.505066667e+08,-54.88
2.508800000e+08,-53.7405
2.512533333e+08,-62.7447
2.516266667e+08,-50.1616
2.520000000e+08,-42.5681
2.523733333e+08,-51.8028
2.527466667e+08,-65.2198
2.531200000e+08,-53.5253
2.534933333e+08,-49.4599
2.538666667e+08,-52.4984
2.542400000e+08,-59.9904
2.546133333e+08,-63.7867
2.549866667e+08,-63.5102
2.553600000e+08,-61.7193
2.557333333e+08,-58.217
2.561066667e+08,-55.6121
2.564800000e+08,-58.078
2.568533333e+08,-62.3334
2.572266667e+08,-68.1651
2.576000000e+08,-61.591
2.579733333e+08,-61.4063
2.583466667e+08,-59.5455
2.587200000e+08,-53.3318
2.590933333e+08,-49.5461
2.594666667e+08,-50.5106
2.598400000e+08,-60.5304
2.602133333e+08,-63.078
2.605866667e+08,-63.8305
2.609600000e+08,-63.8067
2.613333333e+08,-61.2538
2.617066667e+08,-57.0764
2.620800000e+08,-55.5842
2.624533333e+08,-65.2592
2.628266667e+08,-69.4034
2.632000000e+08,-67.8907
2.635733333e+08,-59.3472
2.639466667e+08,-46.223
2.643200000e+08,-51.2557
2.646933333e+08,-48.1339
2.650666667e+08,-59.5696
2.654400000e+08,-62.9525
2.658133333e+08,-72.6239
2.661866667e+08,-82.2764
2.665600000e+08,-77.5429
2.669333333e+08,-61.6227
2.673066667e+08,-53.3442
2.676800000e+08,-60.1322
2.680533333e+08,-66.2345
2.684266667e+08,-67.4248
2.688000000e+08,-69.5413
2.691733333e+08,-71.7008
2.695466667e+08,-64.2499
2.699200000e+08,-45.7904
2.702933333e+08,-48.8582
2.706666667e+08,-74.9012
2.710400000e+08,-69.9976
2.714133333e+08,-73.2703
2.717866667e+08,-74.4891
2.721600000e+08,-64.2453
2.725333333e+08,-53.3312
2.729066667e+08,-54.8476
2.732800000e+08,-69.1291
2.736533333e+08,-69.897
2.740266667e+08,-69.0109
2.744000000e+08,-68.163
2.747733333e+08,-64.7534
2.751466667e+08,-50.5375
2.755200000e+08,-49.1472
2.758933333e+08,-44.6101
2.762666667e+08,-47.4817
2.766400000e+08,-65.9927
2.770133333e+08,-68.0282
2.773866667e+08,-64.8445
2.777600000e+08,-58.5414
2.781333333e+08,-55.5198
2.785066667e+08,-63.1862
2.788800000e+08,-64.7969
2.792533333e+08,-63.3873
2.796266667e+08,-63.1514
2.800000000e+08,-64.0966

