Model,MDO3104
Firmware Version,1.30

Waveform Type,RF_FD
Point Format,Y
Horizontal Units,Hz
Horizontal Scale,2.8e+07
,
Sample Interval,373333
Record Length,751
Gating,0.133155792277% to 100.0%
Probe Attenuation,1
Vertical Units,dBm
Vertical Offset,0
Vertical Scale,10
Vertical Position,0
Center Frequency,1.4e+08
Span,2.8e+08
Reference Level,-15
Label,
FREQUENCY,FD NORM
0.000000000e+00,-60.4907
3.733333333e+05,-68.8113
7.466666667e+05,-79.8919
1.120000000e+06,-81.2297
1.493333333e+06,-71.7294
1.866666667e+06,-70.6927
2.240000000e+06,-74.542
2.613333333e+06,-66.3424
2.986666667e+06,-65.9457
3.360000000e+06,-63.8623
3.733333333e+06,-64.9958
4.106666667e+06,-66.9025
4.480000000e+06,-65.6515
4.853333333e+06,-71.0204
5.226666667e+06,-63.5191
5.600000000e+06,-68.8839
5.973333333e+06,-59.3909
6.346666667e+06,-63.3672
6.720000000e+06,-69.6999
7.093333333e+06,-68.4448
7.466666667e+06,-71.9051
7.840000000e+06,-77.724
8.213333333e+06,-71.1083
8.586666667e+06,-74.3152
8.960000000e+06,-68.0822
9.333333333e+06,-68.5983
9.706666667e+06,-70.4108
1.008000000e+07,-77.4697
1.045333333e+07,-72.622
1.082666667e+07,-66.884
1.120000000e+07,-68.1869
1.157333333e+07,-72.0124
1.194666667e+07,-66.4931
1.232000000e+07,-69.848
1.269333333e+07,-70.5402
1.306666667e+07,-69.7248
1.344000000e+07,-62.1513
1.381333333e+07,-63.1246
1.418666667e+07,-67.8762
1.456000000e+07,-66.332
1.493333333e+07,-70.8169
1.530666667e+07,-69.8328
1.568000000e+07,-70.8268
1.605333333e+07,-64.0313
1.642666667e+07,-62.1707
1.680000000e+07,-63.6742
1.717333333e+07,-69.185
1.754666667e+07,-67.1048
1.792000000e+07,-55.4856
1.829333333e+07,-57.3205
1.866666667e+07,-66.8548
1.904000000e+07,-66.9263
1.941333333e+07,-68.3073
1.978666667e+07,-69.6444
2.016000000e+07,-70.172
2.053333333e+07,-70.6711
2.090666667e+07,-75.6378
2.128000000e+07,-66.7423
2.165333333e+07,-59.6177
2.202666667e+07,-60.4634
2.240000000e+07,-68.3002
2.277333333e+07,-67.8663
2.314666667e+07,-66.5814
2.352000000e+07,-65.6457
2.389333333e+07,-61.4404
2.426666667e+07,-64.6908
2.464000000e+07,-59.7434
2.501333333e+07,-54.7414
2.538666667e+07,-62.5318
2.576000000e+07,-67.8654
2.613333333e+07,-66.164
2.650666667e+07,-73.0072
2.688000000e+07,-66.5722
2.725333333e+07,-59.3408
2.762666667e+07,-62.9558
2.800000000e+07,-68.954
2.837333333e+07,-72.29
2.874666667e+07,-78.155
2.912000000e+07,-73.2161
2.949333333e+07,-75.994
2.986666667e+07,-54.6473
3.024000000e+07,-55.98
3.061333333e+07,-76.3196
3.098666667e+07,-69.1223
3.136000000e+07,-69.3287
3.173333333e+07,-71.6468
3.210666667e+07,-69.3744
3.248000000e+07,-60.246
3.285333333e+07,-58.9035
3.322666667e+07,-69.1484
3.360000000e+07,-78.7419
3.397333333e+07,-75.3521
3.434666667e+07,-78.3676
3.472000000e+07,-81.6403
3.509333333e+07,-62.3168
3.546666667e+07,-57.7041
3.584000000e+07,-48.0739
3.621333333e+07,-48.9313
3.658666667e+07,-74.9879
3.696000000e+07,-76.9955
3.733333333e+07,-77.4073
3.770666667e+07,-73.3324
3.808000000e+07,-59.6197
3.845333333e+07,-62.33
3.882666667e+07,-75.917
3.920000000e+07,-72.0672
3.957333333e+07,-74.8383
3.994666667e+07,-73.653
4.032000000e+07,-70.5385
4.069333333e+07,-58.1319
4.106666667e+07,-58.9405
4.144000000e+07,-70.1839
4.181333333e+07,-53.7265
4.218666667e+07,-53.3809
4.256000000e+07,-71.0388
4.293333333e+07,-73.5569
4.330666667e+07,-60.8286
4.368000000e+07,-59.2107
4.405333333e+07,-63.2641
4.442666667e+07,-72.6555
4.480000000e+07,-76.8143
4.517333333e+07,-74.3847
4.554666667e+07,-74.1517
4.592000000e+07,-65.2709
4.629333333e+07,-57.7472
4.666666667e+07,-58.1648
4.704000000e+07,-68.1789
4.741333333e+07,-66.6362
4.778666667e+07,-37.1143
4.816000000e+07,-36.3909
4.853333333e+07,-61.0069
4.890666667e+07,-60.5017
4.928000000e+07,-59.3245
4.965333333e+07,-71.1278
5.002666667e+07,-71.8916
5.040000000e+07,-69.9909
5.077333333e+07,-71.7397
5.114666667e+07,-68.905
5.152000000e+07,-59.1464
5.189333333e+07,-55.3117
5.226666667e+07,-66.3784
5.264000000e+07,-79.6303
5.301333333e+07,-75.6641
5.338666667e+07,-72.1019
5.376000000e+07,-49.5942
5.413333333e+07,-48.0598
5.450666667e+07,-56.5412
5.488000000e+07,-60.3392
5.525333333e+07,-75.0786
5.562666667e+07,-74.8356
5.600000000e+07,-73.8504
5.637333333e+07,-72.8632
5.674666667e+07,-75.5998
5.712000000e+07,-53.6916
5.749333333e+07,-53.9517
5.786666667e+07,-76.3775
5.824000000e+07,-75.4696
5.861333333e+07,-73.824
5.898666667e+07,-74.2139
5.936000000e+07,-70.8042
5.973333333e+07,-30.6053
6.010666667e+07,-28.3055
6.048000000e+07,-46.608
6.085333333e+07,-73.5868
6.122666667e+07,-77.9755
6.160000000e+07,-75.6439
6.197333333e+07,-77.065
6.234666667e+07,-60.2545
6.272000000e+07,-52.3613
6.309333333e+07,-58.9501
6.346666667e+07,-70.7088
6.384000000e+07,-73.1835
6.421333333e+07,-67.0932
6.458666667e+07,-67.6732
6.496000000e+07,-65.9187
6.533333333e+07,-55.0747
6.570666667e+07,-48.9925
6.608000000e+07,-45.3783
6.645333333e+07,-62.5257
6.682666667e+07,-73.2137
6.720000000e+07,-69.2825
6.757333333e+07,-68.769
6.794666667e+07,-55.5362
6.832000000e+07,-56.0622
6.869333333e+07,-65.6425
6.906666667e+07,-67.9039
6.944000000e+07,-66.1726
6.981333333e+07,-72.1937
7.018666667e+07,-77.1635
7.056000000e+07,-57.5216
7.093333333e+07,-55.8612
7.130666667e+07,-60.9333
7.168000000e+07,-45.7237
7.205333333e+07,-40.6512
7.242666667e+07,-54.1697
7.280000000e+07,-73.7325
7.317333333e+07,-63.9434
7.354666667e+07,-56.2622
7.392000000e+07,-57.2774
7.429333333e+07,-64.6001
7.466666667e+07,-63.9297
7.504000000e+07,-68.2925
7.541333333e+07,-73.1266
7.578666667e+07,-70.7522
7.616000000e+07,-58.9532
7.653333333e+07,-58.7414
7.690666667e+07,-69.1258
7.728000000e+07,-65.6279
7.765333333e+07,-55.8449
7.802666667e+07,-48.9273
7.840000000e+07,-60.2416
7.877333333e+07,-60.078
7.914666667e+07,-56.0509
7.952000000e+07,-64.4854
7.989333333e+07,-67.1141
8.026666667e+07,-72.8376
8.064000000e+07,-69.0687
8.101333333e+07,-71.6137
8.138666667e+07,-59.6985
8.176000000e+07,-56.5676
8.213333333e+07,-59.2873
8.250666667e+07,-67.9195
8.288000000e+07,-68.3204
8.325333333e+07,-69.1491
8.362666667e+07,-51.0543
8.400000000e+07,-43.1772
8.437333333e+07,-51.8502
8.474666667e+07,-54.1548
8.512000000e+07,-76.5442
8.549333333e+07,-72.8071
8.586666667e+07,-76.6234
8.624000000e+07,-72.8213
8.661333333e+07,-74.1451
8.698666667e+07,-58.7534
8.736000000e+07,-55.1932
8.773333333e+07,-71.2596
8.810666667e+07,-71.6192
8.848000000e+07,-77.033
8.885333333e+07,-69.9158
8.922666667e+07,-72.4627
8.960000000e+07,-58.7321
8.997333333e+07,-49.1092
9.034666667e+07,-55.2282
9.072000000e+07,-73.8244
9.109333333e+07,-74.2706
9.146666667e+07,-70.4519
9.184000000e+07,-74.3518
9.221333333e+07,-70.8027
9.258666667e+07,-54.3197
9.296000000e+07,-56.4013
9.333333333e+07,-69.9033
9.370666667e+07,-69.6461
9.408000000e+07,-69.9849
9.445333333e+07,-69.3954
9.482666667e+07,-72.468
9.520000000e+07,-52.9134
9.557333333e+07,-52.6318
9.594666667e+07,-43.2973
9.632000000e+07,-47.3437
9.669333333e+07,-68.6779
9.706666667e+07,-70.7529
9.744000000e+07,-66.2511
9.781333333e+07,-59.3943
9.818666667e+07,-54.2079
9.856000000e+07,-60.4593
9.893333333e+07,-70.7085
9.930666667e+07,-68.9947
9.968000000e+07,-67.453
1.000533333e+08,-68.2351
1.004266667e+08,-63.6024
1.008000000e+08,-51.8022
1.011733333e+08,-53.622
1.015466667e+08,-65.9713
1.019200000e+08,-56.2232
1.022933333e+08,-62.0805
1.026666667e+08,-68.6782
1.030400000e+08,-69.4702
1.034133333e+08,-54.0074
1.037866667e+08,-54.5879
1.041600000e+08,-64.6923
1.045333333e+08,-69.8671
1.049066667e+08,-70.1805
1.052800000e+08,-65.5128
1.056533333e+08,-64.4989
1.060266667e+08,-55.2617
1.064000000e+08,-52.961
1.067733333e+08,-57.3373
1.071466667e+08,-69.2032
1.075200000e+08,-74.0583
1.078933333e+08,-51.6599
1.082666667e+08,-53.1196
1.086400000e+08,-62.1225
1.090133333e+08,-53.8481
1.093866667e+08,-54.2852
1.097600000e+08,-65.5139
1.101333333e+08,-68.7459
1.105066667e+08,-72.0319
1.108800000e+08,-68.6794
1.112533333e+08,-67.6055
1.116266667e+08,-51.9488
1.120000000e+08,-50.3213
1.123733333e+08,-66.7278
1.127466667e+08,-71.879
1.131200000e+08,-67.0327
1.134933333e+08,-65.6619
1.138666667e+08,-61.0828
1.142400000e+08,-56.0626
1.146133333e+08,-51.7856
1.149866667e+08,-62.5145
1.153600000e+08,-74.7175
1.157333333e+08,-72.2272
1.161066667e+08,-69.4781
1.164800000e+08,-71.578
1.168533333e+08,-60.3118
1.172266667e+08,-49.0153
1.176000000e+08,-53.6889
1.179733333e+08,-70.2162
1.183466667e+08,-74.4941
1.187200000e+08,-76.1411
1.190933333e+08,-70.7291
1.194666667e+08,-63.6838
1.198400000e+08,-38.6988
1.202133333e+08,-39.4893
1.205866667e+08,-69.4494
1.209600000e+08,-65.6672
1.213333333e+08,-66.2144
1.217066667e+08,-71.5058
1.220800000e+08,-69.0397
1.224533333e+08,-51.3995
1.228266667e+08,-49.6728
1.232000000e+08,-63.6843
1.235733333e+08,-71.1108
1.239466667e+08,-69.5731
1.243200000e+08,-71.3281
1.246933333e+08,-71.7375
1.250666667e+08,-57.5483
1.254400000e+08,-51.0601
1.258133333e+08,-53.7007
1.261866667e+08,-53.2616
1.265600000e+08,-64.6006
1.269333333e+08,-65.7127
1.273066667e+08,-70.7491
1.276800000e+08,-66.4966
1.280533333e+08,-50.3881
1.284266667e+08,-52.9581
1.288000000e+08,-65.5923
1.291733333e+08,-67.3343
1.295466667e+08,-68.3153
1.299200000e+08,-66.8395
1.302933333e+08,-65.7294
1.306666667e+08,-51.9869
1.310400000e+08,-52.5254
1.314133333e+08,-65.8418
1.317866667e+08,-50.0744
1.321600000e+08,-49.2809
1.325333333e+08,-70.5553
1.329066667e+08,-66.2481
1.332800000e+08,-52.9226
1.336533333e+08,-51.3945
1.340266667e+08,-54.24
1.344000000e+08,-63.0487
1.347733333e+08,-69.0299
1.351466667e+08,-70.4268
1.355200000e+08,-66.3415
1.358933333e+08,-60.583
1.362666667e+08,-53.5618
1.366400000e+08,-53.8876
1.370133333e+08,-68.1
1.373866667e+08,-64.3357
1.377600000e+08,-64.4153
1.381333333e+08,-62.1585
1.385066667e+08,-63.132
1.388800000e+08,-51.8253
1.392533333e+08,-50.4435
1.396266667e+08,-62.4844
1.400000000e+08,-64.1297
1.403733333e+08,-69.7983
1.407466667e+08,-69.183
1.411200000e+08,-67.7545
1.414933333e+08,-57.4591
1.418666667e+08,-52.5878
1.422400000e+08,-60.3897
1.426133333e+08,-72.1913
1.429866667e+08,-67.1858
1.433600000e+08,-81.2528
1.437333333e+08,-46.1039
1.441066667e+08,-43.6397
1.444800000e+08,-49.7223
1.448533333e+08,-51.9146
1.452266667e+08,-67.1621
1.456000000e+08,-72.7247
1.459733333e+08,-76.1814
1.463466667e+08,-70.011
1.467200000e+08,-69.4432
1.470933333e+08,-51.5365
1.474666667e+08,-51.3752
1.478400000e+08,-73.2617
1.482133333e+08,-71.6962
1.485866667e+08,-73.9427
1.489600000e+08,-69.8349
1.493333333e+08,-71.4897
1.497066667e+08,-54.5241
1.500800000e+08,-50.5193
1.504533333e+08,-66.9624
1.508266667e+08,-67.1579
1.512000000e+08,-76.4967
1.515733333e+08,-69.9701
1.519466667e+08,-74.9891
1.523200000e+08,-59.8432
1.526933333e+08,-52.2669
1.530666667e+08,-60.0075
1.534400000e+08,-69.1462
1.538133333e+08,-71.8415
1.541866667e+08,-68.2832
1.545600000e+08,-70.1854
1.549333333e+08,-65.5653
1.553066667e+08,-48.667
1.556800000e+08,-45.5051
1.560533333e+08,-42.3217
1.564266667e+08,-54.8391
1.568000000e+08,-65.8383
1.571733333e+08,-65.1527
1.575466667e+08,-66.3152
1.579200000e+08,-53.0316
1.582933333e+08,-52.8515
1.586666667e+08,-64.439
1.590400000e+08,-72.8585
1.594133333e+08,-66.1615
1.597866667e+08,-68.0633
1.601600000e+08,-64.9384
1.605333333e+08,-52.8058
1.609066667e+08,-49.3422
1.612800000e+08,-53.3429
1.616533333e+08,-60.8085
1.620266667e+08,-59.1532
1.624000000e+08,-69.3362
1.627733333e+08,-63.3742
1.631466667e+08,-66.5636
1.635200000e+08,-53.4607
1.638933333e+08,-53.6947
1.642666667e+08,-72.5206
1.646400000e+08,-64.316
1.650133333e+08,-66.8021
1.653866667e+08,-69.0363
1.657600000e+08,-60.9991
1.661333333e+08,-50.8504
1.665066667e+08,-50.3581
1.668800000e+08,-63.6764
1.672533333e+08,-62.5673
1.676266667e+08,-55.614
1.680000000e+08,-46.9715
1.683733333e+08,-55.2196
1.687466667e+08,-54.1432
1.691200000e+08,-52.5761
1.694933333e+08,-57.3348
1.698666667e+08,-76.7911
1.702400000e+08,-70.7808
1.706133333e+08,-67.6978
1.709866667e+08,-67.9506
1.713600000e+08,-59.1256
1.717333333e+08,-48.3295
1.721066667e+08,-49.2818
1.724800000e+08,-63.9476
1.728533333e+08,-65.926
1.732266667e+08,-66.1048
1.736000000e+08,-67.9375
1.739733333e+08,-61.3819
1.743466667e+08,-54.1154
1.747200000e+08,-52.691
1.750933333e+08,-67.3861
1.754666667e+08,-71.0136
1.758400000e+08,-69.398
1.762133333e+08,-68.4114
1.765866667e+08,-67.7636
1.769600000e+08,-53.5956
1.773333333e+08,-47.6122
1.777066667e+08,-59.5991
1.780800000e+08,-72.4575
1.784533333e+08,-76.4065
1.788266667e+08,-74.9838
1.792000000e+08,-80.0444
1.795733333e+08,-56.633
1.799466667e+08,-43.9208
1.803200000e+08,-48.9486
1.806933333e+08,-77.1475
1.810666667e+08,-69.6963
1.814400000e+08,-70.6981
1.818133333e+08,-81.749
1.821866667e+08,-70.8171
1.825600000e+08,-47.4697
1.829333333e+08,-48.4911
1.833066667e+08,-67.2435
1.836800000e+08,-71.0352
1.840533333e+08,-69.4387
1.844266667e+08,-74.9436
1.848000000e+08,-70.4595
1.851733333e+08,-54.1598
1.855466667e+08,-52.5541
1.859200000e+08,-64.9925
1.862933333e+08,-68.3789
1.866666667e+08,-69.0596
1.870400000e+08,-63.7278
1.874133333e+08,-68.8176
1.877866667e+08,-53.1647
1.881600000e+08,-47.3618
1.885333333e+08,-53.5448
1.889066667e+08,-61.0331
1.892800000e+08,-60.1425
1.896533333e+08,-67.7449
1.900266667e+08,-68.0919
1.904000000e+08,-62.1111
1.907733333e+08,-54.4503
1.911466667e+08,-55.9665
1.915200000e+08,-62.8661
1.918933333e+08,-45.9128
1.922666667e+08,-47.0938
1.926400000e+08,-63.3325
1.930133333e+08,-60.6945
1.933866667e+08,-48.6803
1.937600000e+08,-48.3912
1.941333333e+08,-54.1945
1.945066667e+08,-63.8174
1.948800000e+08,-72.7031
1.952533333e+08,-67.0345
1.956266667e+08,-65.7462
1.960000000e+08,-55.7276
1.963733333e+08,-54.0209
1.967466667e+08,-57.548
1.971200000e+08,-68.4911
1.974933333e+08,-71.6048
1.978666667e+08,-62.2424
1.982400000e+08,-67.0499
1.986133333e+08,-57.5761
1.989866667e+08,-48.7271
1.993600000e+08,-48.7444
1.997333333e+08,-62.6898
2.001066667e+08,-64.0723
2.004800000e+08,-69.3034
2.008533333e+08,-71.5855
2.012266667e+08,-69.763
2.016000000e+08,-53.9188
2.019733333e+08,-52.4392
2.023466667e+08,-68.2703
2.027200000e+08,-71.7188
2.030933333e+08,-67.1683
2.034666667e+08,-66.4579
2.038400000e+08,-42.393
2.042133333e+08,-42.6032
2.045866667e+08,-46.6373
2.049600000e+08,-55.0865
2.053333333e+08,-64.4497
2.057066667e+08,-70.3651
2.060800000e+08,-69.7071
2.064533333e+08,-69.2282
2.068266667e+08,-62.2064
2.072000000e+08,-53.8253
2.075733333e+08,-56.5969
2.079466667e+08,-75.2389
2.083200000e+08,-70.0729
2.086933333e+08,-76.1328
2.090666667e+08,-64.2154
2.094400000e+08,-67.6019
2.098133333e+08,-44.4204
2.101866667e+08,-44.7925
2.105600000e+08,-62.8791
2.109333333e+08,-63.794
2.113066667e+08,-62.1326
2.116800000e+08,-62.7517
2.120533333e+08,-62.5676
2.124266667e+08,-56.7602
2.128000000e+08,-53.3666
2.131733333e+08,-61.82
2.135466667e+08,-70.1178
2.139200000e+08,-68.7924
2.142933333e+08,-64.2636
2.146666667e+08,-67.329
2.150400000e+08,-53.8454
2.154133333e+08,-46.092
2.157866667e+08,-47.1547
2.161600000e+08,-45.6601
2.165333333e+08,-66.6061
2.169066667e+08,-64.0965
2.172800000e+08,-66.599
2.176533333e+08,-66.1634
2.180266667e+08,-53.3002
2.184000000e+08,-55.7563
2.187733333e+08,-68.0318
2.191466667e+08,-71.9542
2.195200000e+08,-66.0785
2.198933333e+08,-65.9185
2.202666667e+08,-65.9277
2.206400000e+08,-48.2667
2.210133333e+08,-48.4248
2.213866667e+08,-55.6896
2.217600000e+08,-67.8946
2.221333333e+08,-59.6557
2.225066667e+08,-67.7847
2.228800000e+08,-67.6074
2.232533333e+08,-56.6193
2.236266667e+08,-54.1858
2.240000000e+08,-61.0064
2.243733333e+08,-63.8459
2.247466667e+08,-71.3178
2.251200000e+08,-67.6494
2.254933333e+08,-65.877
2.258666667e+08,-59.8166
2.262400000e+08,-48.4076
2.266133333e+08,-48.2584
2.269866667e+08,-61.7965
2.273600000e+08,-61.9148
2.277333333e+08,-45.3358
2.281066667e+08,-43.474
2.284800000e+08,-69.9435
2.288533333e+08,-58.1119
2.292266667e+08,-55.8927
2.296000000e+08,-63.7668
2.299733333e+08,-63.5789
2.303466667e+08,-69.2193
2.307200000e+08,-66.8351
2.310933333e+08,-63.6884
2.314666667e+08,-52.6877
2.318400000e+08,-47.2107
2.322133333e+08,-53.6714
2.325866667e+08,-68.5602
2.329600000e+08,-72.3277
2.333333333e+08,-64.0567
2.337066667e+08,-63.1953
2.340800000e+08,-66.1033
2.344533333e+08,-53.9192
2.348266667e+08,-55.4885
2.352000000e+08,-69.8811
2.355733333e+08,-73.3221
2.359466667e+08,-71.5606
2.363200000e+08,-74.3674
2.366933333e+08,-73.5277
2.370666667e+08,-47.8277
2.374400000e+08,-46.6509
2.378133333e+08,-73.8068
2.381866667e+08,-74.1573
2.385600000e+08,-70.8512
2.389333333e+08,-72.1289
2.393066667e+08,-70.9216
2.396800000e+08,-48.5326
2.400533333e+08,-42.6759
2.404266667e+08,-47.1141
2.408000000e+08,-71.6147
2.411733333e+08,-71.5412
2.415466667e+08,-70.2062
2.419200000e+08,-68.0354
2.422933333e+08,-58.3009
2.426666667e+08,-46.5867
2.430400000e+08,-51.8072
2.434133333e+08,-73.9804
2.437866667e+08,-72.3362
2.441600000e+08,-68.4221
2.445333333e+08,-76.6602
2.449066667e+08,-71.3617
2.452800000e+08,-54.1093
2.456533333e+08,-55.6611
2.460266667e+08,-65.1784
2.464000000e+08,-72.233
2.467733333e+08,-71.4995
2.471466667e+08,-68.1489
2.475200000e+08,-63.3047
2.478933333e+08,-48.9744
2.482666667e+08,-47.7749
2.486400000e+08,-56.4264
2.490133333e+08,-66.7331
2.493866667e+08,-69.6962
2.497600000e+08,-71.3009
2.501333333e+08,-67.4839
2.505066667e+08,-60.0826
2.508800000e+08,-53.9614
2.512533333e+08,-57.2944
2.516266667e+08,-53.3455
2.520000000e+08,-45.74
2.523733333e+08,-54.5464
2.527466667e+08,-72.1228
2.531200000e+08,-61.3089
2.534933333e+08,-48.8235
2.538666667e+08,-49.9396
2.542400000e+08,-63.7728
2.546133333e+08,-65.3694
2.549866667e+08,-67.473
2.553600000e+08,-67.1726
2.557333333e+08,-67.2373
2.561066667e+08,-55.6597
2.564800000e+08,-54.2124
2.568533333e+08,-65.4143
2.572266667e+08,-66.8744
2.576000000e+08,-69.3389
2.579733333e+08,-63.2996
2.583466667e+08,-63.8773
2.587200000e+08,-52.6638
2.590933333e+08,-48.134
2.594666667e+08,-51.5764
2.598400000e+08,-63.2294
2.602133333e+08,-71.4721
2.605866667e+08,-65.0394
2.609600000e+08,-67.4263
2.613333333e+08,-68.3622
2.617066667e+08,-54.0977
2.620800000e+08,-54.1826
2.624533333e+08,-67.0795
2.628266667e+08,-68.2665
2.632000000e+08,-70.6188
2.635733333e+08,-64.5377
2.639466667e+08,-54.8552
2.643200000e+08,-49.2075
2.646933333e+08,-47.4769
2.650666667e+08,-68.2331
2.654400000e+08,-67.5719
2.658133333e+08,-68.0907
2.661866667e+08,-68.3826
2.665600000e+08,-68.0693
2.669333333e+08,-63.3072
2.673066667e+08,-54.6599
2.676800000e+08,-65.4201
2.680533333e+08,-73.8008
2.684266667e+08,-72.7017
2.688000000e+08,-68.4706
2.691733333e+08,-68.7271
2.695466667e+08,-60.6289
2.699200000e+08,-45.9229
2.702933333e+08,-49.5673
2.706666667e+08,-75.5985
2.710400000e+08,-75.6876
2.714133333e+08,-68.0206
2.717866667e+08,-68.0768
2.721600000e+08,-67.3447
2.725333333e+08,-53.59
2.729066667e+08,-53.8022
2.732800000e+08,-69.0846
2.736533333e+08,-69.9118
2.740266667e+08,-71.5872
2.744000000e+08,-72.9167
2.747733333e+08,-69.1644
2.751466667e+08,-50.233
2.755200000e+08,-48.3008
2.758933333e+08,-49.8453
2.762666667e+08,-52.5484
2.766400000e+08,-70.7342
2.770133333e+08,-71.0823
2.773866667e+08,-72.2605
2.777600000e+08,-61.0275
2.781333333e+08,-54.2496
2.785066667e+08,-57.7272
2.788800000e+08,-67.1117
2.792533333e+08,-70.8699
2.796266667e+08,-74.631
2.800000000e+08,-66.6704

