Model,MDO3104
Firmware Version,1.30

Waveform Type,RF_FD
Point Format,Y
Horizontal Units,Hz
Horizontal Scale,2.8e+07
,
Sample Interval,373333
Record Length,751
Gating,0.133155792277% to 100.0%
Probe Attenuation,1
Vertical Units,dBm
Vertical Offset,0
Vertical Scale,10
Vertical Position,0
Center Frequency,1.4e+08
Span,2.8e+08
Reference Level,-15
Label,
FREQUENCY,FD NORM
0.000000000e+00,-62.2971
3.733333333e+05,-71.9591
7.466666667e+05,-78.5289
1.120000000e+06,-78.7336
1.493333333e+06,-77.0496
1.866666667e+06,-74.6257
2.240000000e+06,-70.9485
2.613333333e+06,-65.1941
2.986666667e+06,-71.1296
3.360000000e+06,-60.0987
3.733333333e+06,-62.3475
4.106666667e+06,-71.873
4.480000000e+06,-71.3228
4.853333333e+06,-74.74
5.226666667e+06,-66.7627
5.600000000e+06,-70.0327
5.973333333e+06,-67.3983
6.346666667e+06,-66.7223
6.720000000e+06,-70.981
7.093333333e+06,-73.4774
7.466666667e+06,-70.4278
7.840000000e+06,-66.2583
8.213333333e+06,-64.6119
8.586666667e+06,-74.1658
8.960000000e+06,-73.9706
9.333333333e+06,-74.3021
9.706666667e+06,-67.8712
1.008000000e+07,-71.4894
1.045333333e+07,-68.4755
1.082666667e+07,-68.8846
1.120000000e+07,-66.8181
1.157333333e+07,-67.7564
1.194666667e+07,-71.5888
1.232000000e+07,-68.0902
1.269333333e+07,-69.4465
1.306666667e+07,-69.0175
1.344000000e+07,-65.5023
1.381333333e+07,-67.9185
1.418666667e+07,-65.1866
1.456000000e+07,-69.6939
1.493333333e+07,-75.5349
1.530666667e+07,-72.1951
1.568000000e+07,-70.4652
1.605333333e+07,-72.3891
1.642666667e+07,-62.7187
1.680000000e+07,-66.648
1.717333333e+07,-67.8966
1.754666667e+07,-67.493
1.792000000e+07,-69.4809
1.829333333e+07,-68.1755
1.866666667e+07,-67.5153
1.904000000e+07,-64.0593
1.941333333e+07,-64.624
1.978666667e+07,-66.029
2.016000000e+07,-65.5423
2.053333333e+07,-66.6073
2.090666667e+07,-77.2718
2.128000000e+07,-69.581
2.165333333e+07,-70.2745
2.202666667e+07,-72.5095
2.240000000e+07,-68.9241
2.277333333e+07,-66.1037
2.314666667e+07,-65.2955
2.352000000e+07,-66.991
2.389333333e+07,-68.2723
2.426666667e+07,-62.8937
2.464000000e+07,-56.0451
2.501333333e+07,-51.6061
2.538666667e+07,-58.1593
2.576000000e+07,-69.4863
2.613333333e+07,-68.2512
2.650666667e+07,-67.5633
2.688000000e+07,-63.512
2.725333333e+07,-59.7762
2.762666667e+07,-68.5941
2.800000000e+07,-69.7681
2.837333333e+07,-76.395
2.874666667e+07,-73.7309
2.912000000e+07,-77.2609
2.949333333e+07,-71.8494
2.986666667e+07,-59.8209
3.024000000e+07,-62.2194
3.061333333e+07,-71.5008
3.098666667e+07,-74.0772
3.136000000e+07,-69.5612
3.173333333e+07,-76.1309
3.210666667e+07,-74.3843
3.248000000e+07,-63.6794
3.285333333e+07,-62.2489
3.322666667e+07,-73.8643
3.360000000e+07,-73.6811
3.397333333e+07,-73.4717
3.434666667e+07,-79.5402
3.472000000e+07,-75.006
3.509333333e+07,-63.7136
3.546666667e+07,-57.9729
3.584000000e+07,-60.5256
3.621333333e+07,-60.108
3.658666667e+07,-73.1466
3.696000000e+07,-73.7499
3.733333333e+07,-75.1435
3.770666667e+07,-71.5607
3.808000000e+07,-59.6825
3.845333333e+07,-64.7792
3.882666667e+07,-71.3733
3.920000000e+07,-71.4081
3.957333333e+07,-73.4858
3.994666667e+07,-73.0771
4.032000000e+07,-72.8973
4.069333333e+07,-59.5352
4.106666667e+07,-60.0832
4.144000000e+07,-67.2626
4.181333333e+07,-71.1449
4.218666667e+07,-69.8064
4.256000000e+07,-75.4267
4.293333333e+07,-73.1107
4.330666667e+07,-62.1966
4.368000000e+07,-61.1872
4.405333333e+07,-66.8299
4.442666667e+07,-77.3397
4.480000000e+07,-80.2775
4.517333333e+07,-75.2175
4.554666667e+07,-72.5424
4.592000000e+07,-65.6563
4.629333333e+07,-58.0758
4.666666667e+07,-58.6927
4.704000000e+07,-69.4963
4.741333333e+07,-71.281
4.778666667e+07,-73.0674
4.816000000e+07,-68.9329
4.853333333e+07,-73.2961
4.890666667e+07,-59.6309
4.928000000e+07,-58.821
4.965333333e+07,-70.981
5.002666667e+07,-73.1154
5.040000000e+07,-75.5213
5.077333333e+07,-72.8248
5.114666667e+07,-70.5094
5.152000000e+07,-59.9326
5.189333333e+07,-55.3119
5.226666667e+07,-64.8819
5.264000000e+07,-70.4508
5.301333333e+07,-73.5014
5.338666667e+07,-71.6703
5.376000000e+07,-73.8679
5.413333333e+07,-67.3452
5.450666667e+07,-57.0398
5.488000000e+07,-60.1911
5.525333333e+07,-66.6741
5.562666667e+07,-78.505
5.600000000e+07,-72.0489
5.637333333e+07,-71.7497
5.674666667e+07,-69.9381
5.712000000e+07,-52.8126
5.749333333e+07,-53.1491
5.786666667e+07,-68.7696
5.824000000e+07,-72.8364
5.861333333e+07,-71.9008
5.898666667e+07,-76.0426
5.936000000e+07,-79.5754
5.973333333e+07,-36.8502
6.010666667e+07,-34.5222
6.048000000e+07,-53.1334
6.085333333e+07,-77.3651
6.122666667e+07,-77.3782
6.160000000e+07,-71.2889
6.197333333e+07,-71.9971
6.234666667e+07,-61.4782
6.272000000e+07,-52.2883
6.309333333e+07,-59.8755
6.346666667e+07,-76.0376
6.384000000e+07,-74.1245
6.421333333e+07,-71.3216
6.458666667e+07,-70.3481
6.496000000e+07,-73.9963
6.533333333e+07,-56.736
6.570666667e+07,-58.9878
6.608000000e+07,-73.3437
6.645333333e+07,-71.8008
6.682666667e+07,-73.5456
6.720000000e+07,-68.5186
6.757333333e+07,-69.8756
6.794666667e+07,-56.1837
6.832000000e+07,-55.7552
6.869333333e+07,-64.8735
6.906666667e+07,-68.5171
6.944000000e+07,-68.8875
6.981333333e+07,-68.1015
7.018666667e+07,-67.3313
7.056000000e+07,-57.5301
7.093333333e+07,-55.5831
7.130666667e+07,-61.3716
7.168000000e+07,-70.9458
7.205333333e+07,-64.6863
7.242666667e+07,-69.6809
7.280000000e+07,-67.9411
7.317333333e+07,-64.3658
7.354666667e+07,-56.672
7.392000000e+07,-57.0932
7.429333333e+07,-74.158
7.466666667e+07,-64.3522
7.504000000e+07,-66.3015
7.541333333e+07,-70.425
7.578666667e+07,-67.5826
7.616000000e+07,-56.7007
7.653333333e+07,-56.5497
7.690666667e+07,-69.9121
7.728000000e+07,-72.0368
7.765333333e+07,-68.4127
7.802666667e+07,-70.317
7.840000000e+07,-69.6605
7.877333333e+07,-60.3585
7.914666667e+07,-54.9335
7.952000000e+07,-61.7489
7.989333333e+07,-73.1907
8.026666667e+07,-68.3836
8.064000000e+07,-66.4492
8.101333333e+07,-67.5843
8.138666667e+07,-63.7565
8.176000000e+07,-55.6815
8.213333333e+07,-57.2532
8.250666667e+07,-70.6969
8.288000000e+07,-67.1986
8.325333333e+07,-70.8835
8.362666667e+07,-59.5296
8.400000000e+07,-52.9493
8.437333333e+07,-55.7588
8.474666667e+07,-55.0105
8.512000000e+07,-73.6095
8.549333333e+07,-72.5727
8.586666667e+07,-68.5432
8.624000000e+07,-65.7791
8.661333333e+07,-66.0025
8.698666667e+07,-57.7614
8.736000000e+07,-53.6574
8.773333333e+07,-70.2913
8.810666667e+07,-69.3961
8.848000000e+07,-69.8067
8.885333333e+07,-71.8438
8.922666667e+07,-72.2073
8.960000000e+07,-58.8511
8.997333333e+07,-47.5726
9.034666667e+07,-53.5099
9.072000000e+07,-70.8361
9.109333333e+07,-70.896
9.146666667e+07,-77.0599
9.184000000e+07,-72.6431
9.221333333e+07,-71.047
9.258666667e+07,-54.698
9.296000000e+07,-56.7854
9.333333333e+07,-67.1604
9.370666667e+07,-67.7663
9.408000000e+07,-71.6615
9.445333333e+07,-69.8877
9.482666667e+07,-74.8103
9.520000000e+07,-52.7341
9.557333333e+07,-52.1465
9.594666667e+07,-52.9277
9.632000000e+07,-54.0126
9.669333333e+07,-74.2173
9.706666667e+07,-70.7134
9.744000000e+07,-66.4003
9.781333333e+07,-59.655
9.818666667e+07,-54.1879
9.856000000e+07,-59.8213
9.893333333e+07,-75.6089
9.930666667e+07,-68.4874
9.968000000e+07,-70.7724
1.000533333e+08,-67.0033
1.004266667e+08,-63.7778
1.008000000e+08,-53.3141
1.011733333e+08,-56.1
1.015466667e+08,-68.277
1.019200000e+08,-70.8992
1.022933333e+08,-72.2089
1.026666667e+08,-66.5252
1.030400000e+08,-69.4309
1.034133333e+08,-55.508
1.037866667e+08,-55.6137
1.041600000e+08,-67.1371
1.045333333e+08,-71.7521
1.049066667e+08,-70.7148
1.052800000e+08,-66.1326
1.056533333e+08,-65.1756
1.060266667e+08,-55.8883
1.064000000e+08,-53.315
1.067733333e+08,-57.1466
1.071466667e+08,-68.6593
1.075200000e+08,-64.3554
1.078933333e+08,-52.8636
1.082666667e+08,-55.5358
1.086400000e+08,-63.0419
1.090133333e+08,-54.6178
1.093866667e+08,-54.9715
1.097600000e+08,-76.357
1.101333333e+08,-68.8313
1.105066667e+08,-68.698
1.108800000e+08,-69.6897
1.112533333e+08,-63.8327
1.116266667e+08,-52.178
1.120000000e+08,-50.883
1.123733333e+08,-67.2367
1.127466667e+08,-66.8445
1.131200000e+08,-71.7281
1.134933333e+08,-69.1026
1.138666667e+08,-72.2699
1.142400000e+08,-57.784
1.146133333e+08,-53.4872
1.149866667e+08,-65.4244
1.153600000e+08,-70.9268
1.157333333e+08,-81.0054
1.161066667e+08,-76.7072
1.164800000e+08,-72.5797
1.168533333e+08,-61.9631
1.172266667e+08,-50.1745
1.176000000e+08,-53.9983
1.179733333e+08,-67.486
1.183466667e+08,-70.4599
1.187200000e+08,-73.3131
1.190933333e+08,-74.4918
1.194666667e+08,-60.4359
1.198400000e+08,-36.4267
1.202133333e+08,-37.2115
1.205866667e+08,-68.8342
1.209600000e+08,-73.9342
1.213333333e+08,-71.3405
1.217066667e+08,-68.847
1.220800000e+08,-78.6481
1.224533333e+08,-51.0472
1.228266667e+08,-49.5093
1.232000000e+08,-61.9395
1.235733333e+08,-72.7816
1.239466667e+08,-68.5341
1.243200000e+08,-74.3372
1.246933333e+08,-69.1502
1.250666667e+08,-57.422
1.254400000e+08,-51.2481
1.258133333e+08,-57.4905
1.261866667e+08,-75.1711
1.265600000e+08,-67.5603
1.269333333e+08,-68.1345
1.273066667e+08,-70.0189
1.276800000e+08,-68.6579
1.280533333e+08,-49.8033
1.284266667e+08,-52.2898
1.288000000e+08,-64.2037
1.291733333e+08,-68.4752
1.295466667e+08,-65.3658
1.299200000e+08,-70.8942
1.302933333e+08,-66.939
1.306666667e+08,-52.4027
1.310400000e+08,-52.6293
1.314133333e+08,-62.2574
1.317866667e+08,-51.9345
1.321600000e+08,-51.0666
1.325333333e+08,-69.1522
1.329066667e+08,-65.5851
1.332800000e+08,-52.3998
1.336533333e+08,-50.9062
1.340266667e+08,-54.6202
1.344000000e+08,-66.726
1.347733333e+08,-66.1294
1.351466667e+08,-63.6502
1.355200000e+08,-75.5067
1.358933333e+08,-62.3956
1.362666667e+08,-54.2337
1.366400000e+08,-54.7163
1.370133333e+08,-64.9981
1.373866667e+08,-67.4049
1.377600000e+08,-67.7224
1.381333333e+08,-65.8183
1.385066667e+08,-71.7778
1.388800000e+08,-51.2105
1.392533333e+08,-49.9731
1.396266667e+08,-64.0529
1.400000000e+08,-67.1812
1.403733333e+08,-65.0127
1.407466667e+08,-73.0718
1.411200000e+08,-76.545
1.414933333e+08,-55.5201
1.418666667e+08,-52.467
1.422400000e+08,-59.9671
1.426133333e+08,-79.0411
1.429866667e+08,-71.9887
1.433600000e+08,-70.5179
1.437333333e+08,-64.2217
1.441066667e+08,-53.4752
1.444800000e+08,-49.4335
1.448533333e+08,-51.9175
1.452266667e+08,-71.3949
1.456000000e+08,-65.7702
1.459733333e+08,-68.3762
1.463466667e+08,-69.0309
1.467200000e+08,-68.6459
1.470933333e+08,-52.1961
1.474666667e+08,-52.1213
1.478400000e+08,-72.2317
1.482133333e+08,-71.1365
1.485866667e+08,-70.6664
1.489600000e+08,-67.7565
1.493333333e+08,-67.5055
1.497066667e+08,-51.6127
1.500800000e+08,-48.1563
1.504533333e+08,-63.3197
1.508266667e+08,-68.283
1.512000000e+08,-72.2422
1.515733333e+08,-69.6001
1.519466667e+08,-72.068
1.523200000e+08,-62.8009
1.526933333e+08,-52.8701
1.530666667e+08,-59.4026
1.534400000e+08,-69.4318
1.538133333e+08,-69.8442
1.541866667e+08,-71.255
1.545600000e+08,-68.7605
1.549333333e+08,-70.292
1.553066667e+08,-48.2766
1.556800000e+08,-49.8808
1.560533333e+08,-50.3524
1.564266667e+08,-65.4919
1.568000000e+08,-63.1218
1.571733333e+08,-66.7581
1.575466667e+08,-68.1176
1.579200000e+08,-53.0328
1.582933333e+08,-52.9202
1.586666667e+08,-62.5847
1.590400000e+08,-71.3439
1.594133333e+08,-69.5197
1.597866667e+08,-68.6806
1.601600000e+08,-62.8255
1.605333333e+08,-52.7668
1.609066667e+08,-49.2912
1.612800000e+08,-53.9861
1.616533333e+08,-63.4838
1.620266667e+08,-66.8003
1.624000000e+08,-70.9317
1.627733333e+08,-64.6581
1.631466667e+08,-64.8738
1.635200000e+08,-53.0426
1.638933333e+08,-55.3308
1.642666667e+08,-65.3037
1.646400000e+08,-67.5716
1.650133333e+08,-69.7403
1.653866667e+08,-68.4695
1.657600000e+08,-70.1161
1.661333333e+08,-50.6223
1.665066667e+08,-49.5501
1.668800000e+08,-63.4262
1.672533333e+08,-62.7173
1.676266667e+08,-63.8963
1.680000000e+08,-60.3487
1.683733333e+08,-63.0863
1.687466667e+08,-56.1653
1.691200000e+08,-53.7582
1.694933333e+08,-59.1649
1.698666667e+08,-70.4561
1.702400000e+08,-67.2465
1.706133333e+08,-67.657
1.709866667e+08,-66.8952
1.713600000e+08,-58.979
1.717333333e+08,-47.8877
1.721066667e+08,-48.8168
1.724800000e+08,-66.1972
1.728533333e+08,-69.4767
1.732266667e+08,-66.3774
1.736000000e+08,-66.5116
1.739733333e+08,-65.9097
1.743466667e+08,-52.5498
1.747200000e+08,-51.9555
1.750933333e+08,-65.8894
1.754666667e+08,-66.4844
1.758400000e+08,-70.5647
1.762133333e+08,-73.4785
1.765866667e+08,-68.6255
1.769600000e+08,-52.26
1.773333333e+08,-46.9554
1.777066667e+08,-60.5171
1.780800000e+08,-71.4255
1.784533333e+08,-71.3255
1.788266667e+08,-70.6631
1.792000000e+08,-72.0798
1.795733333e+08,-64.8316
1.799466667e+08,-47.7658
1.803200000e+08,-53.4935
1.806933333e+08,-72.9934
1.810666667e+08,-74.5576
1.814400000e+08,-82.2678
1.818133333e+08,-84.3267
1.821866667e+08,-65.7332
1.825600000e+08,-47.8305
1.829333333e+08,-49.0384
1.833066667e+08,-64.7154
1.836800000e+08,-67.2886
1.840533333e+08,-70.3126
1.844266667e+08,-78.6357
1.848000000e+08,-74.9513
1.851733333e+08,-53.6144
1.855466667e+08,-52.0543
1.859200000e+08,-65.7226
1.862933333e+08,-71.5683
1.866666667e+08,-67.4785
1.870400000e+08,-67.5803
1.874133333e+08,-67.614
1.877866667e+08,-52.7564
1.881600000e+08,-47.2783
1.885333333e+08,-52.5889
1.889066667e+08,-68.708
1.892800000e+08,-64.3622
1.896533333e+08,-66.8239
1.900266667e+08,-64.2882
1.904000000e+08,-67.5734
1.907733333e+08,-53.3701
1.911466667e+08,-55.7532
1.915200000e+08,-68.7815
1.918933333e+08,-55.5337
1.922666667e+08,-53.7928
1.926400000e+08,-66.9406
1.930133333e+08,-65.1472
1.933866667e+08,-49.3539
1.937600000e+08,-49.2931
1.941333333e+08,-55.6848
1.945066667e+08,-64.8846
1.948800000e+08,-66.2257
1.952533333e+08,-70.2722
1.956266667e+08,-67.2617
1.960000000e+08,-56.5907
1.963733333e+08,-53.7146
1.967466667e+08,-57.4893
1.971200000e+08,-67.9113
1.974933333e+08,-74.6511
1.978666667e+08,-61.949
1.982400000e+08,-68.4763
1.986133333e+08,-57.8135
1.989866667e+08,-48.1231
1.993600000e+08,-48.4597
1.997333333e+08,-63.4883
2.001066667e+08,-66.0541
2.004800000e+08,-70.3015
2.008533333e+08,-71.1305
2.012266667e+08,-67.0211
2.016000000e+08,-55.5674
2.019733333e+08,-54.0788
2.023466667e+08,-67.332
2.027200000e+08,-66.3615
2.030933333e+08,-68.4345
2.034666667e+08,-67.2841
2.038400000e+08,-49.12
2.042133333e+08,-50.614
2.045866667e+08,-47.0354
2.049600000e+08,-55.0866
2.053333333e+08,-65.3004
2.057066667e+08,-66.8817
2.060800000e+08,-66.4712
2.064533333e+08,-64.5579
2.068266667e+08,-65.2113
2.072000000e+08,-53.1942
2.075733333e+08,-56.2438
2.079466667e+08,-70.5886
2.083200000e+08,-67.7186
2.086933333e+08,-69.9235
2.090666667e+08,-71.5052
2.094400000e+08,-64.1145
2.098133333e+08,-46.7781
2.101866667e+08,-46.9155
2.105600000e+08,-66.2062
2.109333333e+08,-70.0478
2.113066667e+08,-67.6436
2.116800000e+08,-69.0404
2.120533333e+08,-68.3244
2.124266667e+08,-54.4131
2.128000000e+08,-51.5546
2.131733333e+08,-64.7827
2.135466667e+08,-64.9829
2.139200000e+08,-66.3088
2.142933333e+08,-64.8486
2.146666667e+08,-67.1939
2.150400000e+08,-56.8042
2.154133333e+08,-46.9906
2.157866667e+08,-52.3748
2.161600000e+08,-60.2537
2.165333333e+08,-61.8269
2.169066667e+08,-66.43
2.172800000e+08,-66.9081
2.176533333e+08,-63.3561
2.180266667e+08,-54.4029
2.184000000e+08,-54.9464
2.187733333e+08,-68.1683
2.191466667e+08,-64.9179
2.195200000e+08,-69.2032
2.198933333e+08,-64.1069
2.202666667e+08,-65.2178
2.206400000e+08,-46.8679
2.210133333e+08,-46.8182
2.213866667e+08,-55.9623
2.217600000e+08,-61.5767
2.221333333e+08,-71.1398
2.225066667e+08,-67.3199
2.228800000e+08,-64.4604
2.232533333e+08,-57.6483
2.236266667e+08,-55.1955
2.240000000e+08,-58.1188
2.243733333e+08,-69.9218
2.247466667e+08,-68.3728
2.251200000e+08,-65.5413
2.254933333e+08,-62.3686
2.258666667e+08,-59.6457
2.262400000e+08,-47.7078
2.266133333e+08,-47.753
2.269866667e+08,-61.7712
2.273600000e+08,-62.935
2.277333333e+08,-51.2316
2.281066667e+08,-49.3111
2.284800000e+08,-65.2554
2.288533333e+08,-54.628
2.292266667e+08,-54.2629
2.296000000e+08,-68.2332
2.299733333e+08,-65.4782
2.303466667e+08,-71.8823
2.307200000e+08,-67.5088
2.310933333e+08,-63.2877
2.314666667e+08,-53.5565
2.318400000e+08,-47.0785
2.322133333e+08,-53.2636
2.325866667e+08,-67.6455
2.329600000e+08,-67.75
2.333333333e+08,-70.503
2.337066667e+08,-72.0615
2.340800000e+08,-62.1503
2.344533333e+08,-53.5556
2.348266667e+08,-55.0435
2.352000000e+08,-73.5391
2.355733333e+08,-79.3237
2.359466667e+08,-70.9863
2.363200000e+08,-70.6667
2.366933333e+08,-63.5859
2.370666667e+08,-46.7325
2.374400000e+08,-45.8511
2.378133333e+08,-68.3631
2.381866667e+08,-68.957
2.385600000e+08,-72.1071
2.389333333e+08,-69.6774
2.393066667e+08,-70.759
2.396800000e+08,-52.9839
2.400533333e+08,-44.4741
2.404266667e+08,-47.2508
2.408000000e+08,-68.2048
2.411733333e+08,-68.0235
2.415466667e+08,-67.3876
2.419200000e+08,-72.2189
2.422933333e+08,-61.5739
2.426666667e+08,-46.6862
2.430400000e+08,-51.4558
2.434133333e+08,-74.545
2.437866667e+08,-68.6044
2.441600000e+08,-69.211
2.445333333e+08,-74.0085
2.449066667e+08,-76.8472
2.452800000e+08,-52.6863
2.456533333e+08,-53.9638
2.460266667e+08,-67.0375
2.464000000e+08,-70.8908
2.467733333e+08,-71.9733
2.471466667e+08,-69.3898
2.475200000e+08,-65.746
2.478933333e+08,-48.933
2.482666667e+08,-47.9059
2.486400000e+08,-58.5029
2.490133333e+08,-65.8316
2.493866667e+08,-69.0011
2.497600000e+08,-72.1389
2.501333333e+08,-66.7154
2.505066667e+08,-58.2729
2.508800000e+08,-53.6852
2.512533333e+08,-59.9428
2.516266667e+08,-59.3212
2.520000000e+08,-47.9473
2.523733333e+08,-55.3505
2.527466667e+08,-67.3542
2.531200000e+08,-62.4093
2.534933333e+08,-48.693
2.538666667e+08,-49.113
2.542400000e+08,-63.0931
2.546133333e+08,-66.9353
2.549866667e+08,-67.0358
2.553600000e+08,-67.9729
2.557333333e+08,-67.2581
2.561066667e+08,-57.685
2.564800000e+08,-56.3095
2.568533333e+08,-66.5145
2.572266667e+08,-67.08
2.576000000e+08,-67.0182
2.579733333e+08,-63.8883
2.583466667e+08,-65.2595
2.587200000e+08,-52.6925
2.590933333e+08,-48.5974
2.594666667e+08,-52.1634
2.598400000e+08,-65.9151
2.602133333e+08,-67.3061
2.605866667e+08,-69.3403
2.609600000e+08,-66.5321
2.613333333e+08,-63.7207
2.617066667e+08,-53.8418
2.620800000e+08,-54.309
2.624533333e+08,-71.2919
2.628266667e+08,-73.6237
2.632000000e+08,-69.6708
2.635733333e+08,-68.8452
2.639466667e+08,-62.1432
2.643200000e+08,-51.1306
2.646933333e+08,-48.5823
2.650666667e+08,-66.0814
2.654400000e+08,-72.0858
2.658133333e+08,-69.7902
2.661866667e+08,-69.6964
2.665600000e+08,-76.6157
2.669333333e+08,-59.3108
2.673066667e+08,-53.4424
2.676800000e+08,-62.2615
2.680533333e+08,-73.3541
2.684266667e+08,-81.8491
2.688000000e+08,-67.9837
2.691733333e+08,-67.4393
2.695466667e+08,-66.7413
2.699200000e+08,-49.12
2.702933333e+08,-51.6821
2.706666667e+08,-68.89
2.710400000e+08,-67.4077
2.714133333e+08,-68.0117
2.717866667e+08,-69.3372
2.721600000e+08,-75.6986
2.725333333e+08,-54.0052
2.729066667e+08,-54.449
2.732800000e+08,-66.6077
2.736533333e+08,-71.58
2.740266667e+08,-69.7524
2.744000000e+08,-68.15
2.747733333e+08,-70.8856
2.751466667e+08,-50.8198
2.755200000e+08,-48.6306
2.758933333e+08,-45.959
2.762666667e+08,-48.0268
2.766400000e+08,-72.53
2.770133333e+08,-75.8489
2.773866667e+08,-71.8762
2.777600000e+08,-62.1542
2.781333333e+08,-54.5031
2.785066667e+08,-60.5144
2.788800000e+08,-69.0928
2.792533333e+08,-67.2614
2.796266667e+08,-70.0136
2.800000000e+08,-70.9291

