Model,MDO3104
Firmware Version,1.30

Waveform Type,RF_FD
Point Format,Y
Horizontal Units,Hz
Horizontal Scale,2.8e+07
,
Sample Interval,373333
Record Length,751
Gating,0.133155792277% to 100.0%
Probe Attenuation,1
Vertical Units,dBm
Vertical Offset,0
Vertical Scale,10
Vertical Position,0
Center Frequency,1.4e+08
Span,2.8e+08
Reference Level,-15
Label,
FREQUENCY,FD NORM
0.000000000e+00,-64.2342
3.733333333e+05,-73.3481
7.466666667e+05,-80.1675
1.120000000e+06,-83.7622
1.493333333e+06,-66.7625
1.866666667e+06,-64.8057
2.240000000e+06,-73.908
2.613333333e+06,-70.6866
2.986666667e+06,-68.7424
3.360000000e+06,-59.9118
3.733333333e+06,-61.3796
4.106666667e+06,-65.5967
4.480000000e+06,-62.1409
4.853333333e+06,-70.3151
5.226666667e+06,-69.4928
5.600000000e+06,-67.205
5.973333333e+06,-64.8914
6.346666667e+06,-64.5842
6.720000000e+06,-65.7535
7.093333333e+06,-66.6517
7.466666667e+06,-64.458
7.840000000e+06,-63.2338
8.213333333e+06,-63.2207
8.586666667e+06,-61.4448
8.960000000e+06,-62.5821
9.333333333e+06,-61.6036
9.706666667e+06,-60.7852
1.008000000e+07,-57.26
1.045333333e+07,-57.7894
1.082666667e+07,-60.9916
1.120000000e+07,-60.2686
1.157333333e+07,-63.5735
1.194666667e+07,-58.5956
1.232000000e+07,-61.8737
1.269333333e+07,-62.4882
1.306666667e+07,-63.733
1.344000000e+07,-63.3823
1.381333333e+07,-68.0362
1.418666667e+07,-67.3089
1.456000000e+07,-65.3822
1.493333333e+07,-65.496
1.530666667e+07,-65.4009
1.568000000e+07,-65.8165
1.605333333e+07,-68.317
1.642666667e+07,-63.5299
1.680000000e+07,-63.4672
1.717333333e+07,-63.2249
1.754666667e+07,-60.3759
1.792000000e+07,-60.7342
1.829333333e+07,-58.666
1.866666667e+07,-63.4392
1.904000000e+07,-60.8244
1.941333333e+07,-61.3077
1.978666667e+07,-66.5047
2.016000000e+07,-70.5176
2.053333333e+07,-69.2857
2.090666667e+07,-68.2485
2.128000000e+07,-72.1426
2.165333333e+07,-70.0794
2.202666667e+07,-64.2597
2.240000000e+07,-66.5867
2.277333333e+07,-65.8737
2.314666667e+07,-68.6511
2.352000000e+07,-68.4601
2.389333333e+07,-71.7164
2.426666667e+07,-61.2639
2.464000000e+07,-59.2505
2.501333333e+07,-53.2239
2.538666667e+07,-66.6478
2.576000000e+07,-68.5124
2.613333333e+07,-64.8217
2.650666667e+07,-67.6945
2.688000000e+07,-62.2019
2.725333333e+07,-60.7564
2.762666667e+07,-63.2198
2.800000000e+07,-65.0496
2.837333333e+07,-64.5249
2.874666667e+07,-66.5195
2.912000000e+07,-66.1934
2.949333333e+07,-67.7699
2.986666667e+07,-57.9275
3.024000000e+07,-58.5708
3.061333333e+07,-63.1552
3.098666667e+07,-62.4719
3.136000000e+07,-68.7617
3.173333333e+07,-65.8032
3.210666667e+07,-65.222
3.248000000e+07,-66.9425
3.285333333e+07,-59.8681
3.322666667e+07,-62.1576
3.360000000e+07,-59.997
3.397333333e+07,-56.7117
3.434666667e+07,-57.8247
3.472000000e+07,-59.615
3.509333333e+07,-59.7776
3.546666667e+07,-57.7421
3.584000000e+07,-56.0966
3.621333333e+07,-54.9926
3.658666667e+07,-65.872
3.696000000e+07,-68.7899
3.733333333e+07,-62.1628
3.770666667e+07,-58.0346
3.808000000e+07,-60.2221
3.845333333e+07,-58.3901
3.882666667e+07,-66.6209
3.920000000e+07,-65.1105
3.957333333e+07,-60.9373
3.994666667e+07,-59.3306
4.032000000e+07,-60.6086
4.069333333e+07,-58.3254
4.106666667e+07,-55.0189
4.144000000e+07,-59.7422
4.181333333e+07,-56.5819
4.218666667e+07,-58.738
4.256000000e+07,-64.791
4.293333333e+07,-64.5373
4.330666667e+07,-62.5245
4.368000000e+07,-59.2008
4.405333333e+07,-59.8131
4.442666667e+07,-66.535
4.480000000e+07,-67.2694
4.517333333e+07,-61.8004
4.554666667e+07,-55.9482
4.592000000e+07,-56.4728
4.629333333e+07,-59.8346
4.666666667e+07,-57.3369
4.704000000e+07,-57.2297
4.741333333e+07,-56.1363
4.778666667e+07,-40.2955
4.816000000e+07,-39.2863
4.853333333e+07,-53.7474
4.890666667e+07,-52.3195
4.928000000e+07,-50.9832
4.965333333e+07,-51.9077
5.002666667e+07,-52.3104
5.040000000e+07,-52.4715
5.077333333e+07,-61.8085
5.114666667e+07,-55.3073
5.152000000e+07,-57.9183
5.189333333e+07,-53.1505
5.226666667e+07,-55.7964
5.264000000e+07,-53.3396
5.301333333e+07,-53.3544
5.338666667e+07,-51.8083
5.376000000e+07,-50.9527
5.413333333e+07,-57.5253
5.450666667e+07,-49.2863
5.488000000e+07,-51.1961
5.525333333e+07,-60.8633
5.562666667e+07,-60.4792
5.600000000e+07,-65.6769
5.637333333e+07,-55.3827
5.674666667e+07,-55.527
5.712000000e+07,-54.8244
5.749333333e+07,-51.0949
5.786666667e+07,-54.6302
5.824000000e+07,-49.476
5.861333333e+07,-51.4315
5.898666667e+07,-51.3498
5.936000000e+07,-52.385
5.973333333e+07,-32.5663
6.010666667e+07,-29.9728
6.048000000e+07,-48.5612
6.085333333e+07,-53.7321
6.122666667e+07,-48.5751
6.160000000e+07,-49.6199
6.197333333e+07,-52.6409
6.234666667e+07,-52.211
6.272000000e+07,-53.3432
6.309333333e+07,-60.202
6.346666667e+07,-56.3344
6.384000000e+07,-54.3015
6.421333333e+07,-56.9881
6.458666667e+07,-55.1819
6.496000000e+07,-54.3679
6.533333333e+07,-50.808
6.570666667e+07,-49.2907
6.608000000e+07,-53.2662
6.645333333e+07,-49.7156
6.682666667e+07,-51.173
6.720000000e+07,-60.7918
6.757333333e+07,-61.7262
6.794666667e+07,-58.0489
6.832000000e+07,-56.3334
6.869333333e+07,-56.3088
6.906666667e+07,-60.6682
6.944000000e+07,-58.524
6.981333333e+07,-58.1496
7.018666667e+07,-53.6232
7.056000000e+07,-55.1586
7.093333333e+07,-55.0902
7.130666667e+07,-54.2762
7.168000000e+07,-48.9544
7.205333333e+07,-43.9208
7.242666667e+07,-55.0427
7.280000000e+07,-63.9759
7.317333333e+07,-63.5318
7.354666667e+07,-64.0737
7.392000000e+07,-64.3742
7.429333333e+07,-58.4709
7.466666667e+07,-60.4759
7.504000000e+07,-60.5377
7.541333333e+07,-65.0155
7.578666667e+07,-61.098
7.616000000e+07,-56.3583
7.653333333e+07,-55.3285
7.690666667e+07,-63.8581
7.728000000e+07,-64.3598
7.765333333e+07,-56.7725
7.802666667e+07,-55.089
7.840000000e+07,-52.7597
7.877333333e+07,-57.0821
7.914666667e+07,-54.6148
7.952000000e+07,-61.0536
7.989333333e+07,-64.2607
8.026666667e+07,-59.1006
8.064000000e+07,-60.2905
8.101333333e+07,-62.4295
8.138666667e+07,-60.111
8.176000000e+07,-55.5291
8.213333333e+07,-55.8493
8.250666667e+07,-57.1009
8.288000000e+07,-60.3947
8.325333333e+07,-58.2366
8.362666667e+07,-53.1962
8.400000000e+07,-49.9196
8.437333333e+07,-53.5719
8.474666667e+07,-51.6555
8.512000000e+07,-60.5293
8.549333333e+07,-59.0639
8.586666667e+07,-58.8155
8.624000000e+07,-59.4181
8.661333333e+07,-70.6121
8.698666667e+07,-57.0815
8.736000000e+07,-54.4297
8.773333333e+07,-67.5252
8.810666667e+07,-68.9324
8.848000000e+07,-65.923
8.885333333e+07,-60.8746
8.922666667e+07,-60.4293
8.960000000e+07,-57.8697
8.997333333e+07,-50.082
9.034666667e+07,-56.2485
9.072000000e+07,-66.964
9.109333333e+07,-66.6549
9.146666667e+07,-69.5386
9.184000000e+07,-72.3316
9.221333333e+07,-65.3772
9.258666667e+07,-55.2923
9.296000000e+07,-58.2952
9.333333333e+07,-62.6832
9.370666667e+07,-63.6646
9.408000000e+07,-67.52
9.445333333e+07,-62.6488
9.482666667e+07,-63.5307
9.520000000e+07,-52.7856
9.557333333e+07,-51.7333
9.594666667e+07,-44.439
9.632000000e+07,-46.6554
9.669333333e+07,-63.0795
9.706666667e+07,-61.8496
9.744000000e+07,-61.5466
9.781333333e+07,-53.8182
9.818666667e+07,-52.1616
9.856000000e+07,-56.6667
9.893333333e+07,-63.3169
9.930666667e+07,-66.1364
9.968000000e+07,-64.1555
1.000533333e+08,-63.9872
1.004266667e+08,-57.8195
1.008000000e+08,-51.6975
1.011733333e+08,-56.5429
1.015466667e+08,-59.7696
1.019200000e+08,-57.3995
1.022933333e+08,-62.0569
1.026666667e+08,-60.9673
1.030400000e+08,-61.5029
1.034133333e+08,-56.5572
1.037866667e+08,-59.4157
1.041600000e+08,-61.8416
1.045333333e+08,-62.7959
1.049066667e+08,-67.8561
1.052800000e+08,-67.6171
1.056533333e+08,-64.7396
1.060266667e+08,-53.9688
1.064000000e+08,-51.6044
1.067733333e+08,-53.5315
1.071466667e+08,-61.3501
1.075200000e+08,-58.5658
1.078933333e+08,-45.751
1.082666667e+08,-47.9557
1.086400000e+08,-59.5015
1.090133333e+08,-55.858
1.093866667e+08,-54.0631
1.097600000e+08,-59.7155
1.101333333e+08,-58.2095
1.105066667e+08,-62.1827
1.108800000e+08,-69.3526
1.112533333e+08,-64.0336
1.116266667e+08,-52.8002
1.120000000e+08,-50.9705
1.123733333e+08,-64.5681
1.127466667e+08,-61.2797
1.131200000e+08,-61.5987
1.134933333e+08,-68.3575
1.138666667e+08,-62.021
1.142400000e+08,-59.2831
1.146133333e+08,-54.3688
1.149866667e+08,-61.5668
1.153600000e+08,-69.9941
1.157333333e+08,-68.1491
1.161066667e+08,-67.8409
1.164800000e+08,-66.6432
1.168533333e+08,-64.8334
1.172266667e+08,-50.953
1.176000000e+08,-54.2295
1.179733333e+08,-63.5769
1.183466667e+08,-64.5392
1.187200000e+08,-70.2162
1.190933333e+08,-69.4411
1.194666667e+08,-63.4776
1.198400000e+08,-37.2133
1.202133333e+08,-38.0447
1.205866667e+08,-66.6531
1.209600000e+08,-64.8589
1.213333333e+08,-60.0477
1.217066667e+08,-66.4196
1.220800000e+08,-62.1274
1.224533333e+08,-52.1723
1.228266667e+08,-50.0098
1.232000000e+08,-63.7505
1.235733333e+08,-70.225
1.239466667e+08,-69.3336
1.243200000e+08,-69.1887
1.246933333e+08,-59.0621
1.250666667e+08,-56.4592
1.254400000e+08,-50.5865
1.258133333e+08,-56.5578
1.261866667e+08,-60.7927
1.265600000e+08,-61.8109
1.269333333e+08,-65.8512
1.273066667e+08,-64.0319
1.276800000e+08,-60.942
1.280533333e+08,-50.6446
1.284266667e+08,-54.2487
1.288000000e+08,-66.0676
1.291733333e+08,-72.3358
1.295466667e+08,-66.6084
1.299200000e+08,-59.7432
1.302933333e+08,-58.8946
1.306666667e+08,-53.9629
1.310400000e+08,-54.9669
1.314133333e+08,-57.5291
1.317866667e+08,-55.3094
1.321600000e+08,-52.7789
1.325333333e+08,-66.2834
1.329066667e+08,-69.3814
1.332800000e+08,-54.0014
1.336533333e+08,-53.5279
1.340266667e+08,-57.018
1.344000000e+08,-60.3701
1.347733333e+08,-64.0595
1.351466667e+08,-63.5883
1.355200000e+08,-64.8885
1.358933333e+08,-58.5865
1.362666667e+08,-55.9868
1.366400000e+08,-55.8161
1.370133333e+08,-62.0878
1.373866667e+08,-61.5076
1.377600000e+08,-61.4249
1.381333333e+08,-63.1981
1.385066667e+08,-62.6919
1.388800000e+08,-53.4912
1.392533333e+08,-50.5788
1.396266667e+08,-62.4863
1.400000000e+08,-62.7592
1.403733333e+08,-61.5909
1.407466667e+08,-62.8434
1.411200000e+08,-69.3105
1.414933333e+08,-59.0849
1.418666667e+08,-53.3418
1.422400000e+08,-58.0601
1.426133333e+08,-62.1819
1.429866667e+08,-64.0231
1.433600000e+08,-63.0729
1.437333333e+08,-51.6058
1.441066667e+08,-49.2672
1.444800000e+08,-49.9387
1.448533333e+08,-51.4794
1.452266667e+08,-60.8401
1.456000000e+08,-60.7103
1.459733333e+08,-59.4543
1.463466667e+08,-62.0452
1.467200000e+08,-68.7499
1.470933333e+08,-53.3079
1.474666667e+08,-52.8993
1.478400000e+08,-65.6508
1.482133333e+08,-68.652
1.485866667e+08,-61.3454
1.489600000e+08,-63.6552
1.493333333e+08,-78.8467
1.497066667e+08,-52.7402
1.500800000e+08,-49.2805
1.504533333e+08,-63.0152
1.508266667e+08,-66.0811
1.512000000e+08,-68.161
1.515733333e+08,-78.4966
1.519466667e+08,-76.2779
1.523200000e+08,-65.3583
1.526933333e+08,-52.7252
1.530666667e+08,-60.9551
1.534400000e+08,-68.5505
1.538133333e+08,-68.8981
1.541866667e+08,-65.8047
1.545600000e+08,-63.9889
1.549333333e+08,-64.3735
1.553066667e+08,-49.5061
1.556800000e+08,-49.9651
1.560533333e+08,-47.8871
1.564266667e+08,-62.4451
1.568000000e+08,-62.9703
1.571733333e+08,-59.1613
1.575466667e+08,-59.0137
1.579200000e+08,-51.7846
1.582933333e+08,-52.3495
1.586666667e+08,-58.942
1.590400000e+08,-61.8541
1.594133333e+08,-65.936
1.597866667e+08,-63.1922
1.601600000e+08,-62.1236
1.605333333e+08,-49.4485
1.609066667e+08,-47.7817
1.612800000e+08,-53.2055
1.616533333e+08,-56.7841
1.620266667e+08,-65.0581
1.624000000e+08,-65.8462
1.627733333e+08,-67.677
1.631466667e+08,-60.2573
1.635200000e+08,-54.0289
1.638933333e+08,-59.5256
1.642666667e+08,-59.9639
1.646400000e+08,-62.6245
1.650133333e+08,-64.3697
1.653866667e+08,-64.9818
1.657600000e+08,-59.7128
1.661333333e+08,-50.827
1.665066667e+08,-48.7772
1.668800000e+08,-54.3529
1.672533333e+08,-60.4603
1.676266667e+08,-59.0378
1.680000000e+08,-49.6868
1.683733333e+08,-54.3057
1.687466667e+08,-56.9988
1.691200000e+08,-56.9179
1.694933333e+08,-58.5985
1.698666667e+08,-59.0153
1.702400000e+08,-59.0187
1.706133333e+08,-67.069
1.709866667e+08,-66.5492
1.713600000e+08,-56.9406
1.717333333e+08,-47.795
1.721066667e+08,-48.135
1.724800000e+08,-62.132
1.728533333e+08,-62.0798
1.732266667e+08,-66.6302
1.736000000e+08,-67.3723
1.739733333e+08,-62.3715
1.743466667e+08,-54.5557
1.747200000e+08,-52.429
1.750933333e+08,-63.7383
1.754666667e+08,-71.3049
1.758400000e+08,-64.8178
1.762133333e+08,-66.3161
1.765866667e+08,-63.6347
1.769600000e+08,-52.7807
1.773333333e+08,-46.8672
1.777066667e+08,-58.4643
1.780800000e+08,-68.1234
1.784533333e+08,-67.8174
1.788266667e+08,-73.8293
1.792000000e+08,-67.4506
1.795733333e+08,-62.8559
1.799466667e+08,-46.3405
1.803200000e+08,-49.2669
1.806933333e+08,-64.5327
1.810666667e+08,-65.042
1.814400000e+08,-66.638
1.818133333e+08,-61.1912
1.821866667e+08,-57.8619
1.825600000e+08,-47.2487
1.829333333e+08,-48.0139
1.833066667e+08,-63.3279
1.836800000e+08,-71.9467
1.840533333e+08,-75.4579
1.844266667e+08,-65.2056
1.848000000e+08,-64.0348
1.851733333e+08,-53.8128
1.855466667e+08,-52.6413
1.859200000e+08,-64.6202
1.862933333e+08,-72.0355
1.866666667e+08,-69.7437
1.870400000e+08,-70.7339
1.874133333e+08,-69.5346
1.877866667e+08,-51.5197
1.881600000e+08,-47.9962
1.885333333e+08,-53.1077
1.889066667e+08,-62.3658
1.892800000e+08,-67.8213
1.896533333e+08,-64.4298
1.900266667e+08,-61.1114
1.904000000e+08,-61.79
1.907733333e+08,-54.6844
1.911466667e+08,-57.5298
1.915200000e+08,-60.614
1.918933333e+08,-49.7439
1.922666667e+08,-50.0642
1.926400000e+08,-70.0163
1.930133333e+08,-60.5869
1.933866667e+08,-49.7251
1.937600000e+08,-50.8466
1.941333333e+08,-57.4588
1.945066667e+08,-61.1474
1.948800000e+08,-62.5513
1.952533333e+08,-62.3727
1.956266667e+08,-63.3757
1.960000000e+08,-58.7485
1.963733333e+08,-56.7274
1.967466667e+08,-58.2333
1.971200000e+08,-66.1479
1.974933333e+08,-63.7166
1.978666667e+08,-63.9022
1.982400000e+08,-59.5333
1.986133333e+08,-55.5574
1.989866667e+08,-49.6838
1.993600000e+08,-48.9855
1.997333333e+08,-62.6028
2.001066667e+08,-65.7933
2.004800000e+08,-66.5738
2.008533333e+08,-67.5226
2.012266667e+08,-66.0509
2.016000000e+08,-56.6502
2.019733333e+08,-53.617
2.023466667e+08,-58.9255
2.027200000e+08,-66.9458
2.030933333e+08,-65.267
2.034666667e+08,-64.2434
2.038400000e+08,-48.5105
2.042133333e+08,-47.9893
2.045866667e+08,-48.2502
2.049600000e+08,-58.5937
2.053333333e+08,-62.606
2.057066667e+08,-58.913
2.060800000e+08,-61.3085
2.064533333e+08,-66.7008
2.068266667e+08,-68.2988
2.072000000e+08,-53.4503
2.075733333e+08,-55.9165
2.079466667e+08,-72.5895
2.083200000e+08,-67.6261
2.086933333e+08,-62.9927
2.090666667e+08,-63.5544
2.094400000e+08,-69.0442
2.098133333e+08,-46.5615
2.101866667e+08,-46.237
2.105600000e+08,-64.0109
2.109333333e+08,-64.5703
2.113066667e+08,-66.0743
2.116800000e+08,-68.7652
2.120533333e+08,-67.2924
2.124266667e+08,-56.6713
2.128000000e+08,-53.7235
2.131733333e+08,-66.9088
2.135466667e+08,-65.1016
2.139200000e+08,-67.3172
2.142933333e+08,-65.4322
2.146666667e+08,-66.2018
2.150400000e+08,-54.6775
2.154133333e+08,-47.3422
2.157866667e+08,-47.8774
2.161600000e+08,-48.8041
2.165333333e+08,-73.5825
2.169066667e+08,-74.8296
2.172800000e+08,-65.7667
2.176533333e+08,-58.4308
2.180266667e+08,-57.4697
2.184000000e+08,-60.8144
2.187733333e+08,-61.8274
2.191466667e+08,-69.8939
2.195200000e+08,-65.7083
2.198933333e+08,-60.2766
2.202666667e+08,-58.7811
2.206400000e+08,-47.5162
2.210133333e+08,-48.1378
2.213866667e+08,-55.1532
2.217600000e+08,-61.8184
2.221333333e+08,-61.5102
2.225066667e+08,-68.1396
2.228800000e+08,-69.3491
2.232533333e+08,-55.8537
2.236266667e+08,-54.4829
2.240000000e+08,-59.0124
2.243733333e+08,-65.8567
2.247466667e+08,-65.1207
2.251200000e+08,-62.1227
2.254933333e+08,-61.4603
2.258666667e+08,-57.0696
2.262400000e+08,-50.1393
2.266133333e+08,-48.4775
2.269866667e+08,-59.7145
2.273600000e+08,-67.1595
2.277333333e+08,-51.7837
2.281066667e+08,-50.9624
2.284800000e+08,-60.0494
2.288533333e+08,-56.3788
2.292266667e+08,-60.2107
2.296000000e+08,-62.5506
2.299733333e+08,-61.4907
2.303466667e+08,-66.2055
2.307200000e+08,-65.9006
2.310933333e+08,-67.6463
2.314666667e+08,-53.6959
2.318400000e+08,-46.8779
2.322133333e+08,-51.2559
2.325866667e+08,-63.8845
2.329600000e+08,-63.7362
2.333333333e+08,-69.2827
2.337066667e+08,-66.9198
2.340800000e+08,-65.8271
2.344533333e+08,-54.1188
2.348266667e+08,-55.4057
2.352000000e+08,-71.4201
2.355733333e+08,-73.6304
2.359466667e+08,-74.4498
2.363200000e+08,-75.6072
2.366933333e+08,-65.6959
2.370666667e+08,-48.4949
2.374400000e+08,-46.8319
2.378133333e+08,-66.683
2.381866667e+08,-70.5703
2.385600000e+08,-67.6613
2.389333333e+08,-69.7918
2.393066667e+08,-63.8128
2.396800000e+08,-50.7512
2.400533333e+08,-47.8377
2.404266667e+08,-51.5817
2.408000000e+08,-65.2232
2.411733333e+08,-61.0043
2.415466667e+08,-61.6283
2.419200000e+08,-65.3861
2.422933333e+08,-61.5877
2.426666667e+08,-46.6189
2.430400000e+08,-51.8119
2.434133333e+08,-68.2546
2.437866667e+08,-77.6836
2.441600000e+08,-69.0694
2.445333333e+08,-60.9799
2.449066667e+08,-61.6468
2.452800000e+08,-54.7543
2.456533333e+08,-56.7303
2.460266667e+08,-69.2265
2.464000000e+08,-71.3107
2.467733333e+08,-68.0941
2.471466667e+08,-69.2096
2.475200000e+08,-61.9614
2.478933333e+08,-48.3698
2.482666667e+08,-48.0269
2.486400000e+08,-56.9415
2.490133333e+08,-68.2511
2.493866667e+08,-64.8158
2.497600000e+08,-70.4989
2.501333333e+08,-66.6071
2.505066667e+08,-57.8583
2.508800000e+08,-55.5723
2.512533333e+08,-59.2465
2.516266667e+08,-51.5189
2.520000000e+08,-44.5945
2.523733333e+08,-54.7978
2.527466667e+08,-70.4971
2.531200000e+08,-54.0816
2.534933333e+08,-48.2518
2.538666667e+08,-50.5286
2.542400000e+08,-56.3247
2.546133333e+08,-71.2404
2.549866667e+08,-70.046
2.553600000e+08,-67.0785
2.557333333e+08,-64.1743
2.561066667e+08,-57.9947
2.564800000e+08,-56.1025
2.568533333e+08,-59.4939
2.572266667e+08,-61.4676
2.576000000e+08,-66.4997
2.579733333e+08,-61.26
2.583466667e+08,-63.1868
2.587200000e+08,-53.2431
2.590933333e+08,-49.0201
2.594666667e+08,-51.3088
2.598400000e+08,-62.5597
2.602133333e+08,-66.6965
2.605866667e+08,-64.2494
2.609600000e+08,-62.7223
2.613333333e+08,-60.8168
2.617066667e+08,-56.1488
2.620800000e+08,-55.6724
2.624533333e+08,-62.2808
2.628266667e+08,-68.1654
2.632000000e+08,-70.6318
2.635733333e+08,-63.0196
2.639466667e+08,-51.4201
2.643200000e+08,-50.7634
2.646933333e+08,-48.6549
2.650666667e+08,-62.0886
2.654400000e+08,-62.5008
2.658133333e+08,-62.9702
2.661866667e+08,-60.4866
2.665600000e+08,-60.9183
2.669333333e+08,-68.7088
2.673066667e+08,-53.9923
2.676800000e+08,-62.0719
2.680533333e+08,-76.7939
2.684266667e+08,-68.4374
2.688000000e+08,-68.2008
2.691733333e+08,-67.9754
2.695466667e+08,-61.37
2.699200000e+08,-46.0021
2.702933333e+08,-49.3005
2.706666667e+08,-74.4043
2.710400000e+08,-74.9713
2.714133333e+08,-71.3513
2.717866667e+08,-70.5058
2.721600000e+08,-71.075
2.725333333e+08,-53.3935
2.729066667e+08,-54.0111
2.732800000e+08,-74.9712
2.736533333e+08,-69.0411
2.740266667e+08,-63.9909
2.744000000e+08,-64.2295
2.747733333e+08,-72.2078
2.751466667e+08,-50.9108
2.755200000e+08,-49.1619
2.758933333e+08,-47.3643
2.762666667e+08,-48.693
2.766400000e+08,-71.1419
2.770133333e+08,-70.4262
2.773866667e+08,-60.9219
2.777600000e+08,-61.5254
2.781333333e+08,-56.1343
2.785066667e+08,-73.6243
2.788800000e+08,-65.2009
2.792533333e+08,-67.1164
2.796266667e+08,-68.8658
2.800000000e+08,-67.6246

