Model,MDO3104
Firmware Version,1.30

Waveform Type,RF_FD
Point Format,Y
Horizontal Units,Hz
Horizontal Scale,2.8e+07
,
Sample Interval,373333
Record Length,751
Gating,0.133155792277% to 100.0%
Probe Attenuation,1
Vertical Units,dBm
Vertical Offset,0
Vertical Scale,10
Vertical Position,0
Center Frequency,1.4e+08
Span,2.8e+08
Reference Level,-15
Label,
FREQUENCY,FD NORM
0.000000000e+00,-63.5167
3.733333333e+05,-72.8706
7.466666667e+05,-76.5897
1.120000000e+06,-74.6202
1.493333333e+06,-74.1747
1.866666667e+06,-74.5631
2.240000000e+06,-77.1976
2.613333333e+06,-68.7936
2.986666667e+06,-70.1558
3.360000000e+06,-61.4007
3.733333333e+06,-61.8188
4.106666667e+06,-61.659
4.480000000e+06,-62.5218
4.853333333e+06,-63.9791
5.226666667e+06,-62.544
5.600000000e+06,-71.6058
5.973333333e+06,-73.8396
6.346666667e+06,-64.4394
6.720000000e+06,-64.4646
7.093333333e+06,-68.3495
7.466666667e+06,-69.932
7.840000000e+06,-69.4023
8.213333333e+06,-72.8546
8.586666667e+06,-71.2701
8.960000000e+06,-68.3831
9.333333333e+06,-68.3038
9.706666667e+06,-66.2743
1.008000000e+07,-85.7282
1.045333333e+07,-77.3914
1.082666667e+07,-65.3639
1.120000000e+07,-65.1682
1.157333333e+07,-65.6996
1.194666667e+07,-63.24
1.232000000e+07,-66.446
1.269333333e+07,-71.0637
1.306666667e+07,-69.2487
1.344000000e+07,-63.1062
1.381333333e+07,-63.1801
1.418666667e+07,-67.7871
1.456000000e+07,-64.021
1.493333333e+07,-74.4864
1.530666667e+07,-68.9326
1.568000000e+07,-71.3457
1.605333333e+07,-60.9939
1.642666667e+07,-60.7559
1.680000000e+07,-66.8097
1.717333333e+07,-69.7404
1.754666667e+07,-68.88
1.792000000e+07,-67.5653
1.829333333e+07,-68.4987
1.866666667e+07,-68.886
1.904000000e+07,-70.2502
1.941333333e+07,-71.1081
1.978666667e+07,-73.0622
2.016000000e+07,-67.7374
2.053333333e+07,-66.9566
2.090666667e+07,-69.3208
2.128000000e+07,-66.3599
2.165333333e+07,-60.1804
2.202666667e+07,-60.3279
2.240000000e+07,-66.7784
2.277333333e+07,-64.7293
2.314666667e+07,-67.6894
2.352000000e+07,-70.5339
2.389333333e+07,-74.2457
2.426666667e+07,-65.0989
2.464000000e+07,-58.2446
2.501333333e+07,-51.7443
2.538666667e+07,-65.6251
2.576000000e+07,-67.4377
2.613333333e+07,-65.9854
2.650666667e+07,-70.0264
2.688000000e+07,-69.6176
2.725333333e+07,-61.6747
2.762666667e+07,-66.0776
2.800000000e+07,-66.7903
2.837333333e+07,-69.434
2.874666667e+07,-70.1946
2.912000000e+07,-73.9564
2.949333333e+07,-77.8535
2.986666667e+07,-59.6887
3.024000000e+07,-60.7575
3.061333333e+07,-72.4786
3.098666667e+07,-71.7493
3.136000000e+07,-68.6914
3.173333333e+07,-71.4876
3.210666667e+07,-68.6037
3.248000000e+07,-59.3975
3.285333333e+07,-58.5705
3.322666667e+07,-72.7324
3.360000000e+07,-76.9022
3.397333333e+07,-74.8696
3.434666667e+07,-70.4593
3.472000000e+07,-71.3914
3.509333333e+07,-62.9995
3.546666667e+07,-58.1492
3.584000000e+07,-59.9048
3.621333333e+07,-59.9535
3.658666667e+07,-72.5025
3.696000000e+07,-70.2442
3.733333333e+07,-74.1821
3.770666667e+07,-73.2169
3.808000000e+07,-61.0821
3.845333333e+07,-64.0987
3.882666667e+07,-73.5986
3.920000000e+07,-69.2573
3.957333333e+07,-73.4394
3.994666667e+07,-74.8605
4.032000000e+07,-74.0235
4.069333333e+07,-57.7056
4.106666667e+07,-58.192
4.144000000e+07,-69.4697
4.181333333e+07,-69.3976
4.218666667e+07,-70.3098
4.256000000e+07,-71.2359
4.293333333e+07,-68.4406
4.330666667e+07,-60.7151
4.368000000e+07,-59.4471
4.405333333e+07,-65.1537
4.442666667e+07,-73.3205
4.480000000e+07,-72.9937
4.517333333e+07,-72.2648
4.554666667e+07,-73.5217
4.592000000e+07,-64.2747
4.629333333e+07,-56.4884
4.666666667e+07,-57.1123
4.704000000e+07,-70.4574
4.741333333e+07,-72.7045
4.778666667e+07,-62.808
4.816000000e+07,-62.8158
4.853333333e+07,-70.1707
4.890666667e+07,-59.8443
4.928000000e+07,-59.0088
4.965333333e+07,-71.4703
5.002666667e+07,-77.1122
5.040000000e+07,-76.3351
5.077333333e+07,-75.6771
5.114666667e+07,-75.4757
5.152000000e+07,-60.8989
5.189333333e+07,-55.8577
5.226666667e+07,-66.7483
5.264000000e+07,-72.7346
5.301333333e+07,-71.3068
5.338666667e+07,-71.8903
5.376000000e+07,-71.85
5.413333333e+07,-65.3936
5.450666667e+07,-56.357
5.488000000e+07,-59.6559
5.525333333e+07,-78.414
5.562666667e+07,-72.4377
5.600000000e+07,-72.3117
5.637333333e+07,-71.0409
5.674666667e+07,-70.5481
5.712000000e+07,-53.0198
5.749333333e+07,-53.1114
5.786666667e+07,-73.6638
5.824000000e+07,-79.068
5.861333333e+07,-77.1106
5.898666667e+07,-76.5415
5.936000000e+07,-78.4362
5.973333333e+07,-36.9173
6.010666667e+07,-34.5934
6.048000000e+07,-53.4168
6.085333333e+07,-73.3177
6.122666667e+07,-73.6382
6.160000000e+07,-73.0267
6.197333333e+07,-77.3585
6.234666667e+07,-61.6702
6.272000000e+07,-53.0981
6.309333333e+07,-61.632
6.346666667e+07,-66.5544
6.384000000e+07,-67.1897
6.421333333e+07,-70.1837
6.458666667e+07,-69.5538
6.496000000e+07,-68.966
6.533333333e+07,-53.8585
6.570666667e+07,-56.5343
6.608000000e+07,-67.818
6.645333333e+07,-75.8087
6.682666667e+07,-72.0501
6.720000000e+07,-73.229
6.757333333e+07,-76.5226
6.794666667e+07,-56.7313
6.832000000e+07,-56.5766
6.869333333e+07,-67.3967
6.906666667e+07,-68.4917
6.944000000e+07,-68.1054
6.981333333e+07,-74.2592
7.018666667e+07,-65.894
7.056000000e+07,-57.8572
7.093333333e+07,-55.8509
7.130666667e+07,-61.5346
7.168000000e+07,-62.8685
7.205333333e+07,-60.6991
7.242666667e+07,-69.0148
7.280000000e+07,-69.2384
7.317333333e+07,-67.5012
7.354666667e+07,-56.4022
7.392000000e+07,-57.2407
7.429333333e+07,-69.2552
7.466666667e+07,-67.8169
7.504000000e+07,-64.1514
7.541333333e+07,-67.5343
7.578666667e+07,-65.8653
7.616000000e+07,-56.975
7.653333333e+07,-56.537
7.690666667e+07,-69.7353
7.728000000e+07,-67.1133
7.765333333e+07,-66.9925
7.802666667e+07,-67.9691
7.840000000e+07,-66.7005
7.877333333e+07,-60.0988
7.914666667e+07,-57.1625
7.952000000e+07,-64.9398
7.989333333e+07,-69.1974
8.026666667e+07,-68.7796
8.064000000e+07,-69.2112
8.101333333e+07,-69.8089
8.138666667e+07,-61.0452
8.176000000e+07,-53.8775
8.213333333e+07,-55.5223
8.250666667e+07,-71.8333
8.288000000e+07,-71.9154
8.325333333e+07,-66.9585
8.362666667e+07,-61.353
8.400000000e+07,-52.324
8.437333333e+07,-53.1447
8.474666667e+07,-52.5131
8.512000000e+07,-70.2676
8.549333333e+07,-74.5633
8.586666667e+07,-69.9625
8.624000000e+07,-64.7938
8.661333333e+07,-67.6677
8.698666667e+07,-58.3587
8.736000000e+07,-54.8714
8.773333333e+07,-72.0361
8.810666667e+07,-69.4733
8.848000000e+07,-69.3257
8.885333333e+07,-69.3122
8.922666667e+07,-70.9484
8.960000000e+07,-56.7459
8.997333333e+07,-47.7449
9.034666667e+07,-55.2531
9.072000000e+07,-70.333
9.109333333e+07,-69.7626
9.146666667e+07,-74.5442
9.184000000e+07,-67.4331
9.221333333e+07,-71.003
9.258666667e+07,-53.5719
9.296000000e+07,-55.6004
9.333333333e+07,-65.9854
9.370666667e+07,-80.5218
9.408000000e+07,-78.3304
9.445333333e+07,-66.8575
9.482666667e+07,-65.5959
9.520000000e+07,-52.3745
9.557333333e+07,-51.8896
9.594666667e+07,-52.0451
9.632000000e+07,-52.5809
9.669333333e+07,-70.9934
9.706666667e+07,-72.4256
9.744000000e+07,-65.6614
9.781333333e+07,-58.1266
9.818666667e+07,-54.2339
9.856000000e+07,-63.832
9.893333333e+07,-65.3073
9.930666667e+07,-65.2205
9.968000000e+07,-68.9904
1.000533333e+08,-71.5712
1.004266667e+08,-64.9419
1.008000000e+08,-53.8441
1.011733333e+08,-55.0873
1.015466667e+08,-65.9309
1.019200000e+08,-65.1019
1.022933333e+08,-65.6746
1.026666667e+08,-68.1939
1.030400000e+08,-71.7159
1.034133333e+08,-55.31
1.037866667e+08,-56.1959
1.041600000e+08,-65.8205
1.045333333e+08,-67.7043
1.049066667e+08,-68.1307
1.052800000e+08,-66.1968
1.056533333e+08,-66.0756
1.060266667e+08,-54.1703
1.064000000e+08,-52.3584
1.067733333e+08,-57.5348
1.071466667e+08,-68.1338
1.075200000e+08,-71.6968
1.078933333e+08,-53.6405
1.082666667e+08,-57.8395
1.086400000e+08,-60.2585
1.090133333e+08,-53.6277
1.093866667e+08,-54.2022
1.097600000e+08,-68.1239
1.101333333e+08,-71.0012
1.105066667e+08,-66.3069
1.108800000e+08,-71.8712
1.112533333e+08,-63.4059
1.116266667e+08,-51.6438
1.120000000e+08,-50.3248
1.123733333e+08,-67.142
1.127466667e+08,-70.1667
1.131200000e+08,-76.6761
1.134933333e+08,-68.2571
1.138666667e+08,-72.4395
1.142400000e+08,-57.3237
1.146133333e+08,-52.6486
1.149866667e+08,-62.0657
1.153600000e+08,-66.9214
1.157333333e+08,-66.4021
1.161066667e+08,-69.3366
1.164800000e+08,-70.6857
1.168533333e+08,-62.7515
1.172266667e+08,-49.5417
1.176000000e+08,-53.425
1.179733333e+08,-73.8095
1.183466667e+08,-75.9077
1.187200000e+08,-70.7213
1.190933333e+08,-73.0355
1.194666667e+08,-61.4168
1.198400000e+08,-36.1263
1.202133333e+08,-36.8277
1.205866667e+08,-72.799
1.209600000e+08,-75.1758
1.213333333e+08,-77.6743
1.217066667e+08,-70.3519
1.220800000e+08,-68.5125
1.224533333e+08,-50.8262
1.228266667e+08,-49.1426
1.232000000e+08,-69.1822
1.235733333e+08,-66.4053
1.239466667e+08,-68.024
1.243200000e+08,-72.9605
1.246933333e+08,-75.8598
1.250666667e+08,-59.2034
1.254400000e+08,-52.4522
1.258133333e+08,-59.9916
1.261866667e+08,-75.8245
1.265600000e+08,-71.4307
1.269333333e+08,-70.6207
1.273066667e+08,-66.6245
1.276800000e+08,-68.3999
1.280533333e+08,-50.2698
1.284266667e+08,-53.1906
1.288000000e+08,-66.0206
1.291733333e+08,-62.5166
1.295466667e+08,-65.433
1.299200000e+08,-69.2318
1.302933333e+08,-72.2224
1.306666667e+08,-52.0664
1.310400000e+08,-52.1989
1.314133333e+08,-62.9214
1.317866667e+08,-51.497
1.321600000e+08,-50.3753
1.325333333e+08,-67.9278
1.329066667e+08,-71.0524
1.332800000e+08,-53.1842
1.336533333e+08,-51.1338
1.340266667e+08,-54.3548
1.344000000e+08,-63.9046
1.347733333e+08,-67.9039
1.351466667e+08,-68.2077
1.355200000e+08,-68.4982
1.358933333e+08,-58.4812
1.362666667e+08,-52.8257
1.366400000e+08,-53.4002
1.370133333e+08,-66.1562
1.373866667e+08,-66.4973
1.377600000e+08,-67.3078
1.381333333e+08,-72.8113
1.385066667e+08,-65.7681
1.388800000e+08,-51.3722
1.392533333e+08,-50.1606
1.396266667e+08,-67.4974
1.400000000e+08,-64.6648
1.403733333e+08,-67.3486
1.407466667e+08,-72.5064
1.411200000e+08,-68.5384
1.414933333e+08,-57.5555
1.418666667e+08,-53.1067
1.422400000e+08,-60.7109
1.426133333e+08,-73.4042
1.429866667e+08,-69.0961
1.433600000e+08,-70.3142
1.437333333e+08,-70.5971
1.441066667e+08,-52.9875
1.444800000e+08,-48.8243
1.448533333e+08,-50.894
1.452266667e+08,-68.1933
1.456000000e+08,-69.5374
1.459733333e+08,-68.3134
1.463466667e+08,-71.7224
1.467200000e+08,-69.1975
1.470933333e+08,-53.3147
1.474666667e+08,-52.6202
1.478400000e+08,-70.0935
1.482133333e+08,-70.2961
1.485866667e+08,-65.7299
1.489600000e+08,-66.3989
1.493333333e+08,-72.1093
1.497066667e+08,-52.196
1.500800000e+08,-48.7661
1.504533333e+08,-64.9389
1.508266667e+08,-70.0111
1.512000000e+08,-75.6042
1.515733333e+08,-67.2028
1.519466667e+08,-67.5124
1.523200000e+08,-59.2242
1.526933333e+08,-51.6858
1.530666667e+08,-58.2061
1.534400000e+08,-68.0147
1.538133333e+08,-70.2116
1.541866667e+08,-67.5179
1.545600000e+08,-68.5593
1.549333333e+08,-69.1172
1.553066667e+08,-48.6476
1.556800000e+08,-50.6347
1.560533333e+08,-49.4637
1.564266667e+08,-62.0926
1.568000000e+08,-70.7952
1.571733333e+08,-69.3923
1.575466667e+08,-68.0164
1.579200000e+08,-52.6999
1.582933333e+08,-52.1828
1.586666667e+08,-60.5106
1.590400000e+08,-70.3859
1.594133333e+08,-82.3734
1.597866667e+08,-69.8241
1.601600000e+08,-67.0546
1.605333333e+08,-51.9922
1.609066667e+08,-49.0363
1.612800000e+08,-54.023
1.616533333e+08,-65.9577
1.620266667e+08,-63.7778
1.624000000e+08,-64.1742
1.627733333e+08,-67.0023
1.631466667e+08,-63.4176
1.635200000e+08,-52.8231
1.638933333e+08,-53.9183
1.642666667e+08,-67.1178
1.646400000e+08,-65.4393
1.650133333e+08,-65.9344
1.653866667e+08,-68.04
1.657600000e+08,-65.9866
1.661333333e+08,-49.6293
1.665066667e+08,-48.8475
1.668800000e+08,-61.3558
1.672533333e+08,-64.624
1.676266667e+08,-64.3124
1.680000000e+08,-60.2109
1.683733333e+08,-62.4342
1.687466667e+08,-55.8715
1.691200000e+08,-53.8307
1.694933333e+08,-58.9248
1.698666667e+08,-72.3855
1.702400000e+08,-66.2555
1.706133333e+08,-68.8645
1.709866667e+08,-65.656
1.713600000e+08,-56.8792
1.717333333e+08,-48.0446
1.721066667e+08,-49.0547
1.724800000e+08,-65.9764
1.728533333e+08,-67.3089
1.732266667e+08,-66.6348
1.736000000e+08,-66.0985
1.739733333e+08,-65.8279
1.743466667e+08,-52.7908
1.747200000e+08,-51.4787
1.750933333e+08,-71.745
1.754666667e+08,-72.0281
1.758400000e+08,-72.8918
1.762133333e+08,-69.7943
1.765866667e+08,-66.1078
1.769600000e+08,-52.8996
1.773333333e+08,-47.5649
1.777066667e+08,-60.4402
1.780800000e+08,-65.7065
1.784533333e+08,-84.364
1.788266667e+08,-70.6719
1.792000000e+08,-76.9437
1.795733333e+08,-66.0239
1.799466667e+08,-53.4808
1.803200000e+08,-57.3466
1.806933333e+08,-75.7654
1.810666667e+08,-74.9855
1.814400000e+08,-72.7423
1.818133333e+08,-71.1371
1.821866667e+08,-62.9466
1.825600000e+08,-46.1632
1.829333333e+08,-47.3611
1.833066667e+08,-75.6409
1.836800000e+08,-66.4196
1.840533333e+08,-67.458
1.844266667e+08,-65.9265
1.848000000e+08,-62.993
1.851733333e+08,-54.0862
1.855466667e+08,-52.8145
1.859200000e+08,-65.2668
1.862933333e+08,-66.3104
1.866666667e+08,-71.8188
1.870400000e+08,-70.3555
1.874133333e+08,-69.327
1.877866667e+08,-51.8749
1.881600000e+08,-46.9303
1.885333333e+08,-53.4172
1.889066667e+08,-66.0007
1.892800000e+08,-67.152
1.896533333e+08,-67.2015
1.900266667e+08,-68.4821
1.904000000e+08,-65.4013
1.907733333e+08,-54.6324
1.911466667e+08,-57.486
1.915200000e+08,-66.5197
1.918933333e+08,-57.5447
1.922666667e+08,-54.2645
1.926400000e+08,-64.4807
1.930133333e+08,-64.7123
1.933866667e+08,-48.9918
1.937600000e+08,-49.3862
1.941333333e+08,-60.6903
1.945066667e+08,-66.1013
1.948800000e+08,-69.5983
1.952533333e+08,-67.8374
1.956266667e+08,-64.0494
1.960000000e+08,-57.7648
1.963733333e+08,-55.2704
1.967466667e+08,-58.5068
1.971200000e+08,-64.01
1.974933333e+08,-67.331
1.978666667e+08,-64.1838
1.982400000e+08,-69.8811
1.986133333e+08,-58.1913
1.989866667e+08,-48.9709
1.993600000e+08,-49.1547
1.997333333e+08,-63.851
2.001066667e+08,-65.5629
2.004800000e+08,-68.0991
2.008533333e+08,-64.859
2.012266667e+08,-68.3556
2.016000000e+08,-53.3935
2.019733333e+08,-52.2711
2.023466667e+08,-72.0825
2.027200000e+08,-67.1819
2.030933333e+08,-74.2976
2.034666667e+08,-69.672
2.038400000e+08,-48.9296
2.042133333e+08,-50.9377
2.045866667e+08,-47.0863
2.049600000e+08,-58.4219
2.053333333e+08,-66.8692
2.057066667e+08,-65.4666
2.060800000e+08,-72.6288
2.064533333e+08,-64.9879
2.068266667e+08,-67.5498
2.072000000e+08,-54.6613
2.075733333e+08,-57.7328
2.079466667e+08,-70.4897
2.083200000e+08,-69.8145
2.086933333e+08,-72.3082
2.090666667e+08,-71.8196
2.094400000e+08,-70.9119
2.098133333e+08,-46.8312
2.101866667e+08,-46.7301
2.105600000e+08,-65.0061
2.109333333e+08,-65.508
2.113066667e+08,-65.7645
2.116800000e+08,-67.461
2.120533333e+08,-65.5999
2.124266667e+08,-57.8229
2.128000000e+08,-54.4526
2.131733333e+08,-63.2282
2.135466667e+08,-66.5908
2.139200000e+08,-66.5948
2.142933333e+08,-66.9183
2.146666667e+08,-64.4019
2.150400000e+08,-54.1885
2.154133333e+08,-46.1758
2.157866667e+08,-52.6725
2.161600000e+08,-59.0014
2.165333333e+08,-64.102
2.169066667e+08,-66.7841
2.172800000e+08,-64.9701
2.176533333e+08,-66.8375
2.180266667e+08,-54.2835
2.184000000e+08,-55.6162
2.187733333e+08,-67.0282
2.191466667e+08,-73.1353
2.195200000e+08,-68.4082
2.198933333e+08,-69.1656
2.202666667e+08,-61.1915
2.206400000e+08,-48.892
2.210133333e+08,-48.9157
2.213866667e+08,-58.1285
2.217600000e+08,-61.7685
2.221333333e+08,-66.4511
2.225066667e+08,-65.5366
2.228800000e+08,-72.0136
2.232533333e+08,-58.0747
2.236266667e+08,-54.8183
2.240000000e+08,-55.6535
2.243733333e+08,-68.239
2.247466667e+08,-70.5007
2.251200000e+08,-64.0667
2.254933333e+08,-65.6281
2.258666667e+08,-59.1122
2.262400000e+08,-48.4362
2.266133333e+08,-48.3092
2.269866667e+08,-64.5041
2.273600000e+08,-64.1609
2.277333333e+08,-50.5739
2.281066667e+08,-48.3917
2.284800000e+08,-63.2461
2.288533333e+08,-56.3126
2.292266667e+08,-54.7975
2.296000000e+08,-68.9981
2.299733333e+08,-63.8087
2.303466667e+08,-70.2221
2.307200000e+08,-65.6071
2.310933333e+08,-65.2166
2.314666667e+08,-51.1861
2.318400000e+08,-46.6302
2.322133333e+08,-52.5013
2.325866667e+08,-64.0723
2.329600000e+08,-65.3777
2.333333333e+08,-70.1614
2.337066667e+08,-66.7169
2.340800000e+08,-65.8264
2.344533333e+08,-53.5532
2.348266667e+08,-54.3995
2.352000000e+08,-68.8975
2.355733333e+08,-75.6276
2.359466667e+08,-77.2524
2.363200000e+08,-71.4614
2.366933333e+08,-67.3706
2.370666667e+08,-47.4077
2.374400000e+08,-46.3299
2.378133333e+08,-66.1922
2.381866667e+08,-69.1815
2.385600000e+08,-69.0794
2.389333333e+08,-70.0329
2.393066667e+08,-68.7515
2.396800000e+08,-53.6269
2.400533333e+08,-47.6346
2.404266667e+08,-48.9926
2.408000000e+08,-70.6949
2.411733333e+08,-70.2159
2.415466667e+08,-69.0883
2.419200000e+08,-67.9762
2.422933333e+08,-61.4041
2.426666667e+08,-46.715
2.430400000e+08,-51.4527
2.434133333e+08,-71.4319
2.437866667e+08,-69.5934
2.441600000e+08,-66.7294
2.445333333e+08,-69.6871
2.449066667e+08,-73.7853
2.452800000e+08,-53.8192
2.456533333e+08,-54.6831
2.460266667e+08,-68.406
2.464000000e+08,-66.3445
2.467733333e+08,-73.6783
2.471466667e+08,-68.3669
2.475200000e+08,-65.3753
2.478933333e+08,-48.8864
2.482666667e+08,-47.9198
2.486400000e+08,-56.9882
2.490133333e+08,-66.7212
2.493866667e+08,-70.2087
2.497600000e+08,-67.3054
2.501333333e+08,-65.9406
2.505066667e+08,-61.0847
2.508800000e+08,-55.0642
2.512533333e+08,-58.3673
2.516266667e+08,-56.9171
2.520000000e+08,-47.3894
2.523733333e+08,-53.9863
2.527466667e+08,-72.785
2.531200000e+08,-59.911
2.534933333e+08,-48.5606
2.538666667e+08,-48.8363
2.542400000e+08,-63.8076
2.546133333e+08,-67.965
2.549866667e+08,-67.7627
2.553600000e+08,-66.7707
2.557333333e+08,-68.1536
2.561066667e+08,-55.8925
2.564800000e+08,-55.0813
2.568533333e+08,-68.2755
2.572266667e+08,-65.8685
2.576000000e+08,-69.5695
2.579733333e+08,-71.7757
2.583466667e+08,-63.4985
2.587200000e+08,-52.1952
2.590933333e+08,-47.8417
2.594666667e+08,-51.2842
2.598400000e+08,-66.3312
2.602133333e+08,-68.0556
2.605866667e+08,-68.4892
2.609600000e+08,-70.2775
2.613333333e+08,-65.9559
2.617066667e+08,-53.2792
2.620800000e+08,-53.4559
2.624533333e+08,-68.1064
2.628266667e+08,-69.2778
2.632000000e+08,-68.9825
2.635733333e+08,-72.9249
2.639466667e+08,-57.5791
2.643200000e+08,-49.8158
2.646933333e+08,-47.8095
2.650666667e+08,-66.273
2.654400000e+08,-69.4286
2.658133333e+08,-68.317
2.661866667e+08,-73.8011
2.665600000e+08,-73.4978
2.669333333e+08,-59.4898
2.673066667e+08,-53.6099
2.676800000e+08,-66.9419
2.680533333e+08,-72.3848
2.684266667e+08,-72.1487
2.688000000e+08,-77.5852
2.691733333e+08,-73.0138
2.695466667e+08,-59.7958
2.699200000e+08,-45.1366
2.702933333e+08,-48.8009
2.706666667e+08,-74.3479
2.710400000e+08,-70.5497
2.714133333e+08,-67.3162
2.717866667e+08,-67.6241
2.721600000e+08,-70.0212
2.725333333e+08,-55.0898
2.729066667e+08,-55.6634
2.732800000e+08,-67.354
2.736533333e+08,-71.0864
2.740266667e+08,-67.0771
2.744000000e+08,-69.0958
2.747733333e+08,-74.9722
2.751466667e+08,-51.0117
2.755200000e+08,-49.0574
2.758933333e+08,-46.6545
2.762666667e+08,-49.2322
2.766400000e+08,-68.7951
2.770133333e+08,-70.2642
2.773866667e+08,-71.5589
2.777600000e+08,-64.2759
2.781333333e+08,-54.1941
2.785066667e+08,-59.0635
2.788800000e+08,-72.1043
2.792533333e+08,-70.0892
2.796266667e+08,-73.5042
2.800000000e+08,-66.3681

