Model,MDO3104
Firmware Version,1.30

Waveform Type,RF_FD
Point Format,Y
Horizontal Units,Hz
Horizontal Scale,2.8e+07
,
Sample Interval,373333
Record Length,751
Gating,0.133155792277% to 100.0%
Probe Attenuation,1
Vertical Units,dBm
Vertical Offset,0
Vertical Scale,10
Vertical Position,0
Center Frequency,1.4e+08
Span,2.8e+08
Reference Level,-15
Label,
FREQUENCY,FD NORM
0.000000000e+00,-64.2728
3.733333333e+05,-74.5968
7.466666667e+05,-76.5405
1.120000000e+06,-76.1476
1.493333333e+06,-72.5552
1.866666667e+06,-71.6748
2.240000000e+06,-76.1996
2.613333333e+06,-69.4452
2.986666667e+06,-67.2914
3.360000000e+06,-64.2548
3.733333333e+06,-66.0466
4.106666667e+06,-63.9774
4.480000000e+06,-62.8423
4.853333333e+06,-62.8693
5.226666667e+06,-61.6342
5.600000000e+06,-67.1572
5.973333333e+06,-69.3307
6.346666667e+06,-68.2585
6.720000000e+06,-61.2121
7.093333333e+06,-60.7319
7.466666667e+06,-61.4135
7.840000000e+06,-57.9974
8.213333333e+06,-58.6383
8.586666667e+06,-57.7452
8.960000000e+06,-57.7412
9.333333333e+06,-55.6756
9.706666667e+06,-55.4523
1.008000000e+07,-54.6625
1.045333333e+07,-54.0194
1.082666667e+07,-54.8308
1.120000000e+07,-57.2943
1.157333333e+07,-63.794
1.194666667e+07,-60.811
1.232000000e+07,-60.8137
1.269333333e+07,-60.9615
1.306666667e+07,-60.4297
1.344000000e+07,-62.613
1.381333333e+07,-65.6925
1.418666667e+07,-61.7131
1.456000000e+07,-62.0119
1.493333333e+07,-64.0487
1.530666667e+07,-64.3263
1.568000000e+07,-62.5471
1.605333333e+07,-64.529
1.642666667e+07,-61.9807
1.680000000e+07,-67.5477
1.717333333e+07,-64.9224
1.754666667e+07,-67.2754
1.792000000e+07,-64.1292
1.829333333e+07,-63.4561
1.866666667e+07,-63.9702
1.904000000e+07,-67.0666
1.941333333e+07,-68.7682
1.978666667e+07,-68.6502
2.016000000e+07,-68.7162
2.053333333e+07,-68.1183
2.090666667e+07,-65.6028
2.128000000e+07,-71.7915
2.165333333e+07,-62.0978
2.202666667e+07,-61.316
2.240000000e+07,-67.1727
2.277333333e+07,-65.5833
2.314666667e+07,-64.2801
2.352000000e+07,-61.9908
2.389333333e+07,-64.3989
2.426666667e+07,-68.3281
2.464000000e+07,-63.6219
2.501333333e+07,-53.2507
2.538666667e+07,-68.2627
2.576000000e+07,-63.6921
2.613333333e+07,-63.0749
2.650666667e+07,-68.0978
2.688000000e+07,-65.4031
2.725333333e+07,-58.8855
2.762666667e+07,-59.6677
2.800000000e+07,-61.904
2.837333333e+07,-61.9248
2.874666667e+07,-63.2622
2.912000000e+07,-57.2089
2.949333333e+07,-62.2828
2.986666667e+07,-61.33
3.024000000e+07,-62.0541
3.061333333e+07,-65.7808
3.098666667e+07,-62.5871
3.136000000e+07,-69.3934
3.173333333e+07,-64.9649
3.210666667e+07,-60.0563
3.248000000e+07,-58.125
3.285333333e+07,-58.6457
3.322666667e+07,-54.9764
3.360000000e+07,-53.6808
3.397333333e+07,-52.8854
3.434666667e+07,-52.5908
3.472000000e+07,-50.7412
3.509333333e+07,-50.6927
3.546666667e+07,-56.3936
3.584000000e+07,-53.1005
3.621333333e+07,-54.9385
3.658666667e+07,-60.968
3.696000000e+07,-67.6747
3.733333333e+07,-63.3528
3.770666667e+07,-54.5858
3.808000000e+07,-52.4919
3.845333333e+07,-53.5449
3.882666667e+07,-54.4987
3.920000000e+07,-56.9383
3.957333333e+07,-56.274
3.994666667e+07,-54.12
4.032000000e+07,-54.1735
4.069333333e+07,-61.8962
4.106666667e+07,-61.6076
4.144000000e+07,-61.8307
4.181333333e+07,-55.241
4.218666667e+07,-57.3856
4.256000000e+07,-57.7293
4.293333333e+07,-57.6112
4.330666667e+07,-66.6011
4.368000000e+07,-62.348
4.405333333e+07,-62.4384
4.442666667e+07,-56.7723
4.480000000e+07,-57.6514
4.517333333e+07,-56.0907
4.554666667e+07,-53.3548
4.592000000e+07,-55.2418
4.629333333e+07,-52.9948
4.666666667e+07,-52.599
4.704000000e+07,-53.3985
4.741333333e+07,-52.8296
4.778666667e+07,-43.7894
4.816000000e+07,-43.0919
4.853333333e+07,-53.9783
4.890666667e+07,-52.0198
4.928000000e+07,-50.7992
4.965333333e+07,-53.7583
5.002666667e+07,-57.0182
5.040000000e+07,-53.9266
5.077333333e+07,-52.3069
5.114666667e+07,-51.9619
5.152000000e+07,-52.7264
5.189333333e+07,-49.1197
5.226666667e+07,-52.5696
5.264000000e+07,-47.8254
5.301333333e+07,-46.8658
5.338666667e+07,-48.1126
5.376000000e+07,-51.0889
5.413333333e+07,-54.2897
5.450666667e+07,-45.6733
5.488000000e+07,-46.6772
5.525333333e+07,-54.3818
5.562666667e+07,-64.9538
5.600000000e+07,-67.4462
5.637333333e+07,-52.8522
5.674666667e+07,-51.757
5.712000000e+07,-52.746
5.749333333e+07,-50.3111
5.786666667e+07,-49.6443
5.824000000e+07,-46.5903
5.861333333e+07,-48.9285
5.898666667e+07,-47.2125
5.936000000e+07,-49.0587
5.973333333e+07,-33.4209
6.010666667e+07,-31.0756
6.048000000e+07,-50.9059
6.085333333e+07,-52.9763
6.122666667e+07,-48.8889
6.160000000e+07,-48.9274
6.197333333e+07,-57.2379
6.234666667e+07,-52.8555
6.272000000e+07,-51.1724
6.309333333e+07,-51.9263
6.346666667e+07,-50.9375
6.384000000e+07,-48.5074
6.421333333e+07,-52.0608
6.458666667e+07,-49.5693
6.496000000e+07,-46.2
6.533333333e+07,-45.0738
6.570666667e+07,-47.8533
6.608000000e+07,-53.9924
6.645333333e+07,-47.1107
6.682666667e+07,-48.0143
6.720000000e+07,-53.4891
6.757333333e+07,-62.5264
6.794666667e+07,-53.0733
6.832000000e+07,-55.389
6.869333333e+07,-56.8971
6.906666667e+07,-59.3424
6.944000000e+07,-54.6754
6.981333333e+07,-54.7785
7.018666667e+07,-53.5591
7.056000000e+07,-54.7753
7.093333333e+07,-50.873
7.130666667e+07,-53.9825
7.168000000e+07,-54.2457
7.205333333e+07,-46.3732
7.242666667e+07,-60.7184
7.280000000e+07,-60.9762
7.317333333e+07,-57.4702
7.354666667e+07,-53.7841
7.392000000e+07,-62.538
7.429333333e+07,-65.9063
7.466666667e+07,-62.4646
7.504000000e+07,-63.1845
7.541333333e+07,-62.3204
7.578666667e+07,-56.9201
7.616000000e+07,-54.8268
7.653333333e+07,-57.7091
7.690666667e+07,-53.7799
7.728000000e+07,-53.5572
7.765333333e+07,-59.5426
7.802666667e+07,-55.4686
7.840000000e+07,-55.1078
7.877333333e+07,-61.1619
7.914666667e+07,-60.2695
7.952000000e+07,-56.5578
7.989333333e+07,-56.7025
8.026666667e+07,-66.9874
8.064000000e+07,-62.1158
8.101333333e+07,-62.3502
8.138666667e+07,-54.9087
8.176000000e+07,-53.0997
8.213333333e+07,-54.5172
8.250666667e+07,-58.0086
8.288000000e+07,-57.1006
8.325333333e+07,-52.3785
8.362666667e+07,-52.257
8.400000000e+07,-48.5151
8.437333333e+07,-56.1106
8.474666667e+07,-55.1869
8.512000000e+07,-55.7291
8.549333333e+07,-54.4906
8.586666667e+07,-66.4113
8.624000000e+07,-67.6338
8.661333333e+07,-67.0748
8.698666667e+07,-58.0221
8.736000000e+07,-53.0775
8.773333333e+07,-59.739
8.810666667e+07,-62.0688
8.848000000e+07,-65.321
8.885333333e+07,-58.6072
8.922666667e+07,-58.1254
8.960000000e+07,-60.5256
8.997333333e+07,-48.5986
9.034666667e+07,-54.7375
9.072000000e+07,-63.4362
9.109333333e+07,-63.6277
9.146666667e+07,-61.6592
9.184000000e+07,-62.7081
9.221333333e+07,-72.6747
9.258666667e+07,-53.8078
9.296000000e+07,-55.0355
9.333333333e+07,-70.788
9.370666667e+07,-66.3475
9.408000000e+07,-70.0229
9.445333333e+07,-62.909
9.482666667e+07,-63.8062
9.520000000e+07,-58.4126
9.557333333e+07,-58.8175
9.594666667e+07,-47.5859
9.632000000e+07,-51.2151
9.669333333e+07,-57.6848
9.706666667e+07,-62.243
9.744000000e+07,-60.3874
9.781333333e+07,-56.1305
9.818666667e+07,-53.2115
9.856000000e+07,-62.6607
9.893333333e+07,-63.9935
9.930666667e+07,-64.1499
9.968000000e+07,-69.9543
1.000533333e+08,-64.3627
1.004266667e+08,-64.6281
1.008000000e+08,-53.5476
1.011733333e+08,-54.4129
1.015466667e+08,-67.1167
1.019200000e+08,-71.9992
1.022933333e+08,-62.1747
1.026666667e+08,-63.6775
1.030400000e+08,-62.6863
1.034133333e+08,-53.3553
1.037866667e+08,-55.4714
1.041600000e+08,-64.1402
1.045333333e+08,-69.2265
1.049066667e+08,-71.0052
1.052800000e+08,-67.2898
1.056533333e+08,-67.5299
1.060266667e+08,-54.0425
1.064000000e+08,-54.1714
1.067733333e+08,-58.8872
1.071466667e+08,-62.0395
1.075200000e+08,-57.9873
1.078933333e+08,-47.2781
1.082666667e+08,-50.0668
1.086400000e+08,-55.4776
1.090133333e+08,-57.637
1.093866667e+08,-57.8047
1.097600000e+08,-64.1196
1.101333333e+08,-66.8015
1.105066667e+08,-68.9002
1.108800000e+08,-62.2089
1.112533333e+08,-61.8103
1.116266667e+08,-53.658
1.120000000e+08,-51.2927
1.123733333e+08,-64.6508
1.127466667e+08,-64.3535
1.131200000e+08,-62.6698
1.134933333e+08,-67.9115
1.138666667e+08,-70.0742
1.142400000e+08,-59.7084
1.146133333e+08,-53.2901
1.149866667e+08,-62.1022
1.153600000e+08,-72.7008
1.157333333e+08,-74.2524
1.161066667e+08,-68.6101
1.164800000e+08,-65.5876
1.168533333e+08,-61.7683
1.172266667e+08,-49.4707
1.176000000e+08,-52.591
1.179733333e+08,-69.2696
1.183466667e+08,-65.5462
1.187200000e+08,-65.9157
1.190933333e+08,-66.316
1.194666667e+08,-66.0593
1.198400000e+08,-35.6597
1.202133333e+08,-36.3656
1.205866667e+08,-61.8617
1.209600000e+08,-62.1123
1.213333333e+08,-63.5648
1.217066667e+08,-69.9659
1.220800000e+08,-67.3374
1.224533333e+08,-51.3836
1.228266667e+08,-49.3803
1.232000000e+08,-57.5295
1.235733333e+08,-62.2773
1.239466667e+08,-68.0607
1.243200000e+08,-62.9709
1.246933333e+08,-63.3368
1.250666667e+08,-56.8336
1.254400000e+08,-51.1896
1.258133333e+08,-60.0943
1.261866667e+08,-68.5713
1.265600000e+08,-71.488
1.269333333e+08,-67.349
1.273066667e+08,-66.6476
1.276800000e+08,-58.019
1.280533333e+08,-50.3727
1.284266667e+08,-53.9958
1.288000000e+08,-59.2893
1.291733333e+08,-67.2088
1.295466667e+08,-64.7638
1.299200000e+08,-62.9963
1.302933333e+08,-68.2566
1.306666667e+08,-52.481
1.310400000e+08,-53.2552
1.314133333e+08,-58.8846
1.317866667e+08,-54.3578
1.321600000e+08,-53.4512
1.325333333e+08,-67.7782
1.329066667e+08,-60.7002
1.332800000e+08,-52.427
1.336533333e+08,-51.6136
1.340266667e+08,-52.8016
1.344000000e+08,-64.3951
1.347733333e+08,-62.4898
1.351466667e+08,-62.169
1.355200000e+08,-65.1229
1.358933333e+08,-58.5664
1.362666667e+08,-55.9222
1.366400000e+08,-55.621
1.370133333e+08,-60.5998
1.373866667e+08,-64.4521
1.377600000e+08,-63.3793
1.381333333e+08,-61.9994
1.385066667e+08,-61.5062
1.388800000e+08,-52.5348
1.392533333e+08,-48.9167
1.396266667e+08,-59.8605
1.400000000e+08,-62.6859
1.403733333e+08,-62.2724
1.407466667e+08,-64.6823
1.411200000e+08,-62.1983
1.414933333e+08,-57.5567
1.418666667e+08,-53.7147
1.422400000e+08,-61.0104
1.426133333e+08,-64.8331
1.429866667e+08,-65.8836
1.433600000e+08,-58.3576
1.437333333e+08,-53.3894
1.441066667e+08,-48.7137
1.444800000e+08,-49.4044
1.448533333e+08,-51.0193
1.452266667e+08,-58.39
1.456000000e+08,-58.0886
1.459733333e+08,-65.3068
1.463466667e+08,-63.2957
1.467200000e+08,-71.1009
1.470933333e+08,-51.8693
1.474666667e+08,-50.7606
1.478400000e+08,-65.7515
1.482133333e+08,-67.8655
1.485866667e+08,-67.5899
1.489600000e+08,-69.8631
1.493333333e+08,-71.4474
1.497066667e+08,-53.3039
1.500800000e+08,-48.5705
1.504533333e+08,-60.4417
1.508266667e+08,-65.3467
1.512000000e+08,-71.4481
1.515733333e+08,-70.0399
1.519466667e+08,-72.4528
1.523200000e+08,-62.1164
1.526933333e+08,-51.6495
1.530666667e+08,-57.7173
1.534400000e+08,-71.377
1.538133333e+08,-69.8768
1.541866667e+08,-64.2294
1.545600000e+08,-63.055
1.549333333e+08,-65.146
1.553066667e+08,-50.9101
1.556800000e+08,-50.3546
1.560533333e+08,-44.6601
1.564266667e+08,-59.3931
1.568000000e+08,-59.6064
1.571733333e+08,-62.3458
1.575466667e+08,-61.975
1.579200000e+08,-53.4453
1.582933333e+08,-54.5642
1.586666667e+08,-61.5241
1.590400000e+08,-60.6519
1.594133333e+08,-69.7501
1.597866667e+08,-65.6507
1.601600000e+08,-64.1767
1.605333333e+08,-51.2044
1.609066667e+08,-48.5844
1.612800000e+08,-53.3484
1.616533333e+08,-60.5613
1.620266667e+08,-64.7025
1.624000000e+08,-63.7989
1.627733333e+08,-59.6742
1.631466667e+08,-61.2142
1.635200000e+08,-54.8137
1.638933333e+08,-58.5764
1.642666667e+08,-65.183
1.646400000e+08,-75.5681
1.650133333e+08,-63.722
1.653866667e+08,-61.5587
1.657600000e+08,-64.0471
1.661333333e+08,-51.5033
1.665066667e+08,-52.0865
1.668800000e+08,-59.089
1.672533333e+08,-61.7765
1.676266667e+08,-60.0176
1.680000000e+08,-55.7952
1.683733333e+08,-60.1372
1.687466667e+08,-56.9552
1.691200000e+08,-54.1561
1.694933333e+08,-58.0182
1.698666667e+08,-64.1296
1.702400000e+08,-63.4492
1.706133333e+08,-63.2835
1.709866667e+08,-59.8605
1.713600000e+08,-57.0669
1.717333333e+08,-48.3656
1.721066667e+08,-48.7927
1.724800000e+08,-62.3266
1.728533333e+08,-64.2434
1.732266667e+08,-68.9165
1.736000000e+08,-61.5614
1.739733333e+08,-64.4644
1.743466667e+08,-54.3741
1.747200000e+08,-52.4634
1.750933333e+08,-70.1003
1.754666667e+08,-71.4991
1.758400000e+08,-62.7944
1.762133333e+08,-65.219
1.765866667e+08,-68.2458
1.769600000e+08,-53.5565
1.773333333e+08,-47.3909
1.777066667e+08,-60.5751
1.780800000e+08,-69.6498
1.784533333e+08,-63.6062
1.788266667e+08,-66.249
1.792000000e+08,-61.323
1.795733333e+08,-53.1824
1.799466667e+08,-41.3676
1.803200000e+08,-45.7045
1.806933333e+08,-67.4197
1.810666667e+08,-61.4518
1.814400000e+08,-63.5823
1.818133333e+08,-66.5525
1.821866667e+08,-69.57
1.825600000e+08,-48.1582
1.829333333e+08,-49.3056
1.833066667e+08,-63.6403
1.836800000e+08,-68.5768
1.840533333e+08,-71.2136
1.844266667e+08,-66.9715
1.848000000e+08,-61.2537
1.851733333e+08,-53.2913
1.855466667e+08,-52.2583
1.859200000e+08,-65.88
1.862933333e+08,-71.4928
1.866666667e+08,-67.7945
1.870400000e+08,-64.2042
1.874133333e+08,-66.3423
1.877866667e+08,-52.5166
1.881600000e+08,-48.2359
1.885333333e+08,-53.2037
1.889066667e+08,-61.2158
1.892800000e+08,-65.1963
1.896533333e+08,-61.0862
1.900266667e+08,-61.304
1.904000000e+08,-64.9102
1.907733333e+08,-53.6087
1.911466667e+08,-58.1888
1.915200000e+08,-63.4192
1.918933333e+08,-57.0536
1.922666667e+08,-55.7701
1.926400000e+08,-60.1594
1.930133333e+08,-60.4099
1.933866667e+08,-49.4917
1.937600000e+08,-50.995
1.941333333e+08,-55.8152
1.945066667e+08,-60.933
1.948800000e+08,-62.9233
1.952533333e+08,-61.1605
1.956266667e+08,-62.3118
1.960000000e+08,-55.5474
1.963733333e+08,-55.1244
1.967466667e+08,-58.4709
1.971200000e+08,-61.2313
1.974933333e+08,-64.4932
1.978666667e+08,-61.6024
1.982400000e+08,-59.6315
1.986133333e+08,-56.3121
1.989866667e+08,-49.2352
1.993600000e+08,-48.6549
1.997333333e+08,-60.8017
2.001066667e+08,-61.2142
2.004800000e+08,-64.8678
2.008533333e+08,-65.7038
2.012266667e+08,-68.7476
2.016000000e+08,-56.2961
2.019733333e+08,-53.5754
2.023466667e+08,-65.2963
2.027200000e+08,-60.952
2.030933333e+08,-62.473
2.034666667e+08,-61.3691
2.038400000e+08,-47.4085
2.042133333e+08,-48.4786
2.045866667e+08,-46.7878
2.049600000e+08,-53.0769
2.053333333e+08,-58.5128
2.057066667e+08,-61.1679
2.060800000e+08,-64.6456
2.064533333e+08,-65.1927
2.068266667e+08,-69.3653
2.072000000e+08,-53.1093
2.075733333e+08,-54.8791
2.079466667e+08,-65.1261
2.083200000e+08,-66.0141
2.086933333e+08,-66.6374
2.090666667e+08,-66.5523
2.094400000e+08,-68.8548
2.098133333e+08,-47.4477
2.101866667e+08,-46.9813
2.105600000e+08,-63.7533
2.109333333e+08,-63.3477
2.113066667e+08,-62.972
2.116800000e+08,-62.392
2.120533333e+08,-70.5292
2.124266667e+08,-57.7841
2.128000000e+08,-53.7778
2.131733333e+08,-64.6384
2.135466667e+08,-69.791
2.139200000e+08,-66.2688
2.142933333e+08,-60.4823
2.146666667e+08,-62.2695
2.150400000e+08,-54.6867
2.154133333e+08,-48.045
2.157866667e+08,-57.0601
2.161600000e+08,-57.8286
2.165333333e+08,-61.72
2.169066667e+08,-61.9647
2.172800000e+08,-61.6368
2.176533333e+08,-63.6277
2.180266667e+08,-53.9457
2.184000000e+08,-60.0513
2.187733333e+08,-67.3652
2.191466667e+08,-68.1369
2.195200000e+08,-64.9159
2.198933333e+08,-64.8004
2.202666667e+08,-70.2322
2.206400000e+08,-47.4477
2.210133333e+08,-47.9726
2.213866667e+08,-56.829
2.217600000e+08,-64.7186
2.221333333e+08,-65.4957
2.225066667e+08,-64.3464
2.228800000e+08,-73.4536
2.232533333e+08,-59.5281
2.236266667e+08,-57.0757
2.240000000e+08,-62.5491
2.243733333e+08,-67.8994
2.247466667e+08,-63.9155
2.251200000e+08,-61.5222
2.254933333e+08,-63.2078
2.258666667e+08,-54.9662
2.262400000e+08,-48.6833
2.266133333e+08,-49.7095
2.269866667e+08,-60.5139
2.273600000e+08,-59.5602
2.277333333e+08,-48.4071
2.281066667e+08,-45.7855
2.284800000e+08,-58.7232
2.288533333e+08,-56.8488
2.292266667e+08,-56.6566
2.296000000e+08,-65.2156
2.299733333e+08,-62.3186
2.303466667e+08,-61.1289
2.307200000e+08,-64.8955
2.310933333e+08,-62.2821
2.314666667e+08,-52.3111
2.318400000e+08,-46.979
2.322133333e+08,-51.9727
2.325866667e+08,-62.4567
2.329600000e+08,-65.9177
2.333333333e+08,-66.3268
2.337066667e+08,-66.1125
2.340800000e+08,-64.2636
2.344533333e+08,-53.5963
2.348266667e+08,-54.262
2.352000000e+08,-68.481
2.355733333e+08,-68.9774
2.359466667e+08,-75.3693
2.363200000e+08,-76.5161
2.366933333e+08,-64.1396
2.370666667e+08,-47.5766
2.374400000e+08,-46.2852
2.378133333e+08,-68.1295
2.381866667e+08,-76.7891
2.385600000e+08,-71.8058
2.389333333e+08,-72.5049
2.393066667e+08,-70.6297
2.396800000e+08,-55.9276
2.400533333e+08,-45.6641
2.404266667e+08,-47.8868
2.408000000e+08,-64.1891
2.411733333e+08,-71.7244
2.415466667e+08,-67.5191
2.419200000e+08,-65.9847
2.422933333e+08,-61.4927
2.426666667e+08,-46.9773
2.430400000e+08,-51.1358
2.434133333e+08,-62.6541
2.437866667e+08,-65.9589
2.441600000e+08,-67.7192
2.445333333e+08,-70.789
2.449066667e+08,-61.8312
2.452800000e+08,-53.1723
2.456533333e+08,-55.3372
2.460266667e+08,-69.0851
2.464000000e+08,-70.1134
2.467733333e+08,-67.3946
2.471466667e+08,-66.1625
2.475200000e+08,-64.3822
2.478933333e+08,-48.6821
2.482666667e+08,-48.0506
2.486400000e+08,-56.2383
2.490133333e+08,-62.8478
2.493866667e+08,-68.1555
2.497600000e+08,-65.8747
2.501333333e+08,-67.55
2.505066667e+08,-60.5212
2.508800000e+08,-54.823
2.512533333e+08,-62.0856
2.516266667e+08,-56.8331
2.520000000e+08,-51.9138
2.523733333e+08,-59.9821
2.527466667e+08,-65.6504
2.531200000e+08,-58.2969
2.534933333e+08,-49.0342
2.538666667e+08,-52.5401
2.542400000e+08,-60.4311
2.546133333e+08,-61.0089
2.549866667e+08,-60.1786
2.553600000e+08,-61.3493
2.557333333e+08,-63.5852
2.561066667e+08,-56.1282
2.564800000e+08,-58.3684
2.568533333e+08,-61.8345
2.572266667e+08,-62.9031
2.576000000e+08,-61.9533
2.579733333e+08,-64.6707
2.583466667e+08,-63.3438
2.587200000e+08,-55.4184
2.590933333e+08,-48.9059
2.594666667e+08,-50.8138
2.598400000e+08,-60.4133
2.602133333e+08,-61.5317
2.605866667e+08,-63.2637
2.609600000e+08,-65.2289
2.613333333e+08,-61.9622
2.617066667e+08,-54.4122
2.620800000e+08,-53.7942
2.624533333e+08,-62.8681
2.628266667e+08,-62.9019
2.632000000e+08,-61.3249
2.635733333e+08,-60.6722
2.639466667e+08,-58.5635
2.643200000e+08,-49.5627
2.646933333e+08,-47.3283
2.650666667e+08,-61.7226
2.654400000e+08,-60.4147
2.658133333e+08,-65.0692
2.661866667e+08,-69.2041
2.665600000e+08,-67.5256
2.669333333e+08,-60.8325
2.673066667e+08,-52.8858
2.676800000e+08,-59.8357
2.680533333e+08,-71.27
2.684266667e+08,-71.0495
2.688000000e+08,-69.8588
2.691733333e+08,-69.6463
2.695466667e+08,-59.5326
2.699200000e+08,-47.1712
2.702933333e+08,-50.498
2.706666667e+08,-68.3768
2.710400000e+08,-71.0332
2.714133333e+08,-68.8646
2.717866667e+08,-68.4184
2.721600000e+08,-70.2877
2.725333333e+08,-53.864
2.729066667e+08,-54.3138
2.732800000e+08,-76.2426
2.736533333e+08,-74.1435
2.740266667e+08,-68.0339
2.744000000e+08,-64.073
2.747733333e+08,-63.1294
2.751466667e+08,-51.1993
2.755200000e+08,-49.5168
2.758933333e+08,-44.4184
2.762666667e+08,-46.479
2.766400000e+08,-64.2319
2.770133333e+08,-65.7056
2.773866667e+08,-68.8021
2.777600000e+08,-59.2702
2.781333333e+08,-53.3387
2.785066667e+08,-62.3198
2.788800000e+08,-64.7095
2.792533333e+08,-63.4636
2.796266667e+08,-67.0519
2.800000000e+08,-64.8609

